# pn-170911/RbIIA-29-KOKB-1280-1959.psd
# Power spectrum* (dif=0,1,2) (really just |FT|^2)
# NOTE: only the first half! (symmetric)
# weeks: 1280-1959
# 3 clock-days, 0 excluded
# PSD: 1441
25388.8 0.284343 0.00145652
557053 7.50485 0.00112417
2.06377e+06 37.1495 0.00179626
158334 5.11593 0.00138944
97884.9 5.45123 0.00067201
107649 7.39619 0.00307631
61069.8 4.66049 0.00259283
23724.5 4.71764 0.00340238
7791.67 2.97763 0.00215393
16485.1 8.75149 0.00302253
7476.12 5.30536 0.00428036
8385.6 9.3871 0.00516015
10912.6 2.89589 0.00415473
8338.65 3.29848 0.00324631
9892.75 5.14856 0.00408726
5533.5 2.28245 0.00511956
2557.8 3.06252 0.0037012
10285.2 7.07281 0.0072574
7384.9 7.89748 0.0184163
2491.47 0.981642 0.00305239
4881.47 4.95002 0.0110395
3702.72 6.88695 0.0187167
3041.67 3.84525 0.0109323
1642.05 1.32332 0.00206151
4142.28 4.88112 0.0169453
820.056 5.07641 0.0155752
2294.33 4.10719 0.0186391
1908.25 6.32963 0.0174698
1283.26 2.41323 0.00540204
1229.19 2.97671 0.0104194
4936.8 18.3068 0.0769509
1657.68 2.77281 0.00962354
1848.41 3.57621 0.0180001
1197.98 4.491 0.0254088
1993.71 6.27469 0.0454301
949.796 4.94407 0.0302532
816.206 3.81588 0.0301605
625.33 4.20159 0.0343592
409.685 3.68812 0.0211858
531.111 5.38245 0.0397618
633.864 6.24319 0.0599214
1259.47 5.75878 0.0484399
744.258 4.04844 0.0387369
840.433 2.42143 0.0228797
985.452 3.68085 0.0389937
864.012 4.74857 0.0520851
224.256 1.46808 0.0193729
902.049 5.47097 0.0633963
816.278 4.97144 0.0649814
779.551 7.0514 0.101283
129.701 1.22019 0.0138665
319.191 2.21187 0.0280469
293.362 2.17553 0.0262901
88.3664 1.75655 0.0194942
186.694 5.25 0.0806758
719.613 6.36392 0.0934869
386.687 2.07301 0.0328596
597.528 3.67765 0.0523783
158.047 1.30603 0.0162334
402.876 3.72227 0.0559434
452.942 6.16169 0.11284
212.927 0.580272 0.00941865
274.921 4.84462 0.0809271
327.173 5.37886 0.102464
926.182 12.0505 0.243413
12.7271 1.44698 0.032519
197.327 5.75092 0.115383
365.629 3.02642 0.0659961
252.263 4.7441 0.105012
226.98 5.76836 0.142762
498.216 5.14464 0.120265
185.119 1.52008 0.0472916
206.01 3.70697 0.0984664
395.609 6.13423 0.14229
134.174 3.28368 0.0879068
106.705 5.35384 0.161752
202.642 5.01977 0.137835
219.641 2.05548 0.0548737
364.994 6.09553 0.196978
171.648 3.49916 0.121803
212.264 4.10892 0.100502
313.77 7.50119 0.233355
100.53 3.48954 0.116084
216.272 4.15693 0.140101
235.258 3.81503 0.122278
235.07 7.10113 0.250689
113.114 2.40875 0.106357
217.748 5.14801 0.205545
143.328 3.22532 0.101796
81.7539 2.0976 0.0967926
85.5135 2.46236 0.0952431
148.516 2.73241 0.111747
272.967 5.12876 0.208186
40.6274 5.44812 0.206438
210.944 9.1991 0.39101
82.8102 3.95129 0.192398
28.8205 3.49145 0.159428
88.2607 4.03515 0.209295
256.315 6.50309 0.314165
58.4531 3.23392 0.166239
249.413 4.57659 0.2142
55.3087 2.06982 0.130305
171.799 6.34547 0.278426
82.6952 3.16256 0.186781
168.992 4.79555 0.257507
106.783 4.84438 0.283128
168.632 5.6882 0.278723
192.494 6.4301 0.320873
225.794 6.42501 0.334144
17.5199 1.63127 0.0997993
86.6432 2.05605 0.154195
151.409 4.85469 0.245415
123.219 3.40182 0.19009
59.3717 1.74354 0.0882716
54.3359 3.16538 0.191683
41.5168 1.97837 0.13807
30.0481 3.44434 0.234681
64.3905 0.396735 0.023373
115.897 3.30493 0.214878
58.2911 1.16537 0.108432
170.15 7.60421 0.488169
102.979 2.86893 0.232785
117.168 7.21766 0.531573
171.213 11.0384 0.749049
26.9892 3.98358 0.324834
160.528 6.0425 0.375417
100.695 3.99626 0.289439
94.5393 2.42613 0.177785
94.7365 2.44093 0.219949
49.9275 6.01759 0.490799
79.6667 2.30889 0.179961
71.6413 1.91188 0.158952
59.8848 7.63395 0.675961
131.429 4.65581 0.333979
61.7769 1.40829 0.109575
78.772 3.00075 0.24686
38.1442 1.29453 0.105637
75.4912 2.11703 0.200455
99.8918 5.43854 0.548382
122.616 10.4214 0.981294
129.353 7.99822 0.682646
50.6586 6.22377 0.610784
140.32 6.52048 0.629995
24.4383 1.26618 0.157325
99.3038 7.29985 0.703529
37.197 5.23702 0.452934
24.9672 1.33313 0.12154
37.4638 1.76643 0.19792
16.7896 2.46865 0.262294
22.7478 3.63354 0.314418
6.65324 1.62623 0.179516
47.6269 2.4328 0.263384
39.2557 1.30762 0.154221
81.0816 8.2606 0.909458
24.979 6.38465 0.765804
117.02 7.13457 0.753451
67.0228 8.29687 0.94998
63.2493 5.40619 0.6143
63.2301 2.25257 0.265964
47.698 2.21932 0.241171
72.2524 4.67041 0.625883
18.3135 2.10747 0.184118
30.9064 2.36347 0.266176
23.7701 2.17969 0.286062
22.1468 2.96462 0.401728
38.0275 2.60619 0.36586
60.8197 4.87923 0.607581
60.4963 3.26963 0.507
15.7901 1.15782 0.17995
27.7179 2.77622 0.381104
102.021 8.32039 1.03307
41.4073 4.89186 0.659204
8.91862 0.596587 0.0786881
48.477 4.08205 0.524298
27.6836 2.82884 0.411435
81.9202 5.19108 0.8034
49.8838 6.04229 0.792529
30.0876 2.7404 0.478501
23.1523 8.17428 1.13615
40.3702 3.85077 0.595035
36.7347 3.4014 0.57295
40.7678 2.43525 0.323828
99.4787 10.0745 1.59083
28.6984 4.70628 0.71525
104.454 10.3284 1.74071
75.0372 7.21162 1.15373
57.6735 7.07851 1.10915
11.3911 1.70274 0.287669
25.5267 4.71418 0.849716
26.8098 4.99222 0.708898
22.1065 7.66193 1.16703
10.8511 3.2352 0.505182
52.7984 8.84519 1.53073
80.0277 18.4595 3.53269
38.5633 1.87841 0.213658
16.1613 1.0405 0.287614
49.425 7.60738 1.37844
33.2907 4.66564 0.76469
11.1561 3.46148 0.711952
11.4007 2.6405 0.548856
60.0369 3.55276 0.640888
9.65713 1.88932 0.302565
37.1527 4.21161 0.770246
9.29868 1.80547 0.309714
4.76907 2.00922 0.424552
9.41282 0.946827 0.164014
12.2556 2.28056 0.482405
16.2878 4.46107 1.11704
22.847 2.63193 0.504398
42.2606 5.29312 1.09759
29.4758 2.88187 0.523913
32.3119 3.04452 0.761684
33.0722 9.72378 1.83623
4.42712 3.15195 0.894261
25.2833 2.70053 0.54579
46.5396 3.03178 0.542882
22.3363 1.90075 0.377145
51.4961 6.3127 1.44796
41.0365 3.64629 0.737117
6.24829 3.61631 0.789584
33.8578 2.50691 0.505023
24.548 1.49437 0.381565
37.7781 5.1473 1.3
26.771 4.36922 0.950936
58.8324 7.7399 2.00008
50.8718 10.1734 2.22819
3.68683 1.24292 0.2606
30.9823 5.80339 1.3402
14.7836 1.49031 0.363686
42.6502 4.77354 1.03991
54.4679 6.81958 1.79861
7.94086 3.08833 0.870329
31.6332 4.976 1.28708
16.7337 1.39603 0.409624
19.861 5.54318 1.37198
24.2124 5.63237 1.7597
41.5191 8.07656 2.16942
34.1108 7.48134 1.59106
19.283 3.54953 1.09115
35.0838 5.68576 1.46598
17.7495 4.6931 1.29865
20.1846 4.16677 1.10413
15.1182 2.15358 0.798291
70.2714 9.61858 2.5034
13.783 6.84364 1.86745
20.9975 3.00256 0.980452
21.6762 3.48331 0.87615
16.3822 2.46499 0.557371
34.2206 6.49741 1.77893
14.2318 5.8741 1.84331
18.1487 2.53918 0.611813
35.4355 8.37193 2.49862
15.9241 2.23448 0.740285
13.1015 3.72147 1.43983
26.4746 3.25278 1.01109
16.0335 3.43809 0.837384
12.6834 3.6708 0.83735
15.5509 7.33321 2.24962
12.8526 4.00791 1.39745
13.2548 2.64931 0.773198
4.15352 2.29053 0.883188
14.0626 2.42319 0.857226
20.6065 5.10375 2.00266
31.0959 2.50407 0.61132
21.6678 5.12954 2.06344
56.969 7.11989 1.88387
32.8703 4.66109 1.31844
8.60462 2.72684 1.1967
38.2689 6.92574 2.1477
18.6103 4.06454 1.19844
26.824 3.55661 1.09795
11.0951 1.3109 0.448686
9.72751 3.76595 1.28674
6.91585 1.09118 0.679661
23.3972 4.43454 1.73198
17.8008 3.43493 1.09481
52.6715 8.7581 2.79648
28.1472 5.50122 1.79467
14.8372 3.27212 0.986298
31.7957 6.55832 1.87093
32.5696 7.23897 2.43707
15.7748 6.30477 2.50045
8.7776 2.45321 1.14061
21.5428 3.1059 1.49132
21.2741 6.34301 2.01471
20.3824 10.4113 4.86989
40.1263 6.58569 2.12581
15.6389 4.87944 1.52183
17.3975 3.5929 1.16413
18.2916 2.53592 1.12017
34.1367 9.20402 3.54261
16.4488 3.48615 1.27338
22.2471 6.1029 2.41387
31.2091 10.388 4.38148
17.2444 2.55547 0.848254
17.5458 4.20589 1.71844
9.45132 1.09771 0.581659
10.8778 0.735115 0.287014
6.66492 0.911105 0.183144
11.0782 6.47215 2.29637
36.2859 9.57746 3.51589
33.3137 9.2051 4.04165
15.1793 2.59323 1.2342
16.6252 2.02963 0.733155
25.8489 8.08213 3.90622
29.917 5.76381 1.80997
21.7165 8.32439 3.77092
22.1248 3.57584 1.86347
19.9419 4.65906 2.49844
11.4962 4.97636 2.22569
10.6431 4.45257 2.54305
21.4879 9.87868 3.88187
2.58019 3.39382 2.70359
22.5047 5.66523 1.59745
25.9068 5.00341 2.26698
8.20996 3.77025 1.83212
15.7614 6.95784 2.6016
11.0094 2.80567 1.24494
12.9582 3.26495 1.71827
10.7898 1.29985 0.368775
17.4566 4.03236 2.24559
7.04867 4.07581 1.75525
17.4504 2.67796 1.37953
9.40767 1.40043 0.44712
22.3109 4.54526 2.37319
7.05607 5.13698 3.14345
21.6736 6.06336 2.11163
14.4427 4.55374 2.40202
28.9024 7.04928 3.86362
6.18559 2.18034 1.87443
10.9043 5.26375 2.93848
2.31546 2.35019 0.938238
10.8773 2.80995 1.22897
12.8368 7.08872 3.15748
6.62057 6.18854 3.69923
29.2586 7.50295 2.97658
10.346 3.75403 1.88726
6.2496 2.1594 1.03319
10.8711 4.67082 2.87861
8.83522 4.17194 2.04059
4.41535 0.649129 0.851541
14.5361 5.39253 3.6473
19.7083 9.81048 3.81023
18.4612 8.45975 3.7389
6.39372 1.3845 0.815611
8.94468 10.9057 6.51472
17.0522 3.07868 1.75266
15.4384 3.89551 1.78312
16.3606 7.42181 4.04572
15.7989 5.8372 3.28054
3.02837 4.39282 2.93805
12.7693 5.31406 3.64213
11.3313 2.11879 0.74856
12.7078 3.6775 2.12655
23.6288 17.0736 8.21579
11.7248 6.57718 3.30468
7.49685 5.94547 3.62418
6.16296 5.24868 3.16363
3.75486 0.526738 0.500214
3.43437 0.624788 0.391465
3.399 1.00609 0.859619
12.0768 2.8232 2.06595
19.1408 6.12881 3.05671
7.89452 3.69454 1.78447
12.429 4.38206 2.24055
7.33615 1.59583 1.35354
3.01292 4.22873 3.16126
18.0802 5.87324 2.55826
23.5032 9.3705 5.68495
4.0645 1.73754 0.922723
2.94137 1.95998 1.45413
14.1896 4.87549 3.31659
8.57521 6.56131 4.25576
11.5281 2.10375 1.42653
2.86095 2.37641 1.48495
9.21847 3.64219 1.99974
8.52675 5.05227 3.71972
6.83389 5.34027 4.46616
15.0512 6.25198 3.26669
8.10744 3.61846 3.44945
14.1734 3.03174 2.08576
6.56356 2.71333 2.39323
10.5746 2.51001 1.06397
10.5585 3.69028 1.84252
26.7157 12.5989 7.20899
6.39433 3.5033 2.59989
5.7582 3.7047 2.56685
4.76082 4.4224 3.97897
7.38147 3.43742 1.90765
8.27011 2.62893 1.59676
5.94952 2.37911 1.66309
11.719 5.90991 4.54351
4.88101 2.71836 1.73787
9.94119 2.34412 2.59603
4.40025 2.74906 1.87385
15.1609 4.91526 2.48151
6.71934 4.74102 2.39514
21.8799 10.3468 6.92185
7.65398 3.02842 2.61676
4.64027 2.80803 1.31246
1.22611 2.63944 1.73558
2.01928 2.28569 1.53411
1.70574 2.07323 2.30433
5.94929 2.72438 1.78048
8.41482 1.37551 0.857427
6.15978 2.38263 1.71027
5.15571 2.53144 1.80299
8.4726 3.99648 3.24295
15.3797 4.22877 3.11184
9.06109 4.81158 3.73311
9.69253 4.84878 4.16944
4.93514 6.8251 4.0329
9.55103 5.46585 4.21875
5.88287 2.09203 1.61647
3.13058 2.78237 3.1085
13.9204 12.1075 10.9955
23.2904 9.10686 6.10033
12.8136 8.27113 4.73916
12.4189 7.30423 6.09932
13.1874 11.4296 8.16525
8.29429 1.94511 1.84375
3.01531 2.14761 2.34085
8.19661 5.06422 3.37428
4.71185 2.91382 3.03191
15.7435 10.3284 9.22943
21.0505 6.29738 3.46861
15.9021 5.65376 3.18231
14.4135 5.94578 5.06814
5.02497 1.14846 0.764202
13.5444 5.58308 4.61525
2.95826 4.10604 3.53807
6.26188 2.65898 2.62838
7.25243 4.09133 2.88466
6.21223 2.47357 2.50321
4.29363 2.78551 2.9518
14.4816 6.41353 2.77896
16.4722 13.6448 11.2132
3.80594 1.52349 1.99775
6.20126 2.51768 2.68336
14.2635 5.56344 4.72667
10.1151 5.48011 6.17709
1.6776 1.15859 2.23541
3.27588 0.832857 0.809178
3.97728 4.21741 5.23857
9.64432 13.7604 9.17585
3.86466 1.22416 0.875434
2.64285 2.81817 3.03933
10.5076 5.76786 6.47735
11.8747 5.5945 3.82655
3.8465 2.86237 1.99843
4.26593 3.16245 2.2496
5.49012 3.8408 3.79753
2.42166 3.77955 3.15967
4.49858 1.31653 1.35443
7.4318 5.3158 5.52693
4.11822 1.9491 1.66619
11.5207 7.76962 7.42547
11.022 7.86443 6.69015
4.83559 0.752736 0.334973
2.43093 1.94736 2.00304
5.18266 0.722356 0.861162
8.57172 6.79528 6.03404
2.51927 2.61399 4.20849
4.19725 1.9187 2.74776
5.69904 0.901679 0.679036
4.08198 2.37151 2.75896
12.9452 7.37005 5.34583
9.79616 4.16966 3.48045
5.57214 7.19138 5.67849
1.88876 1.48645 2.74192
6.01796 3.06403 2.71699
5.80468 6.85007 6.7305
7.38156 4.46542 4.92386
19.8248 13.6297 11.2886
15.5746 5.99706 5.14585
3.57663 1.89944 2.05385
4.47877 3.39847 3.73113
10.689 6.97414 6.32279
14.1832 8.51745 8.02209
4.91923 5.5907 6.67052
14.8123 6.33535 6.52935
9.36244 5.77927 5.41826
8.06328 8.03085 6.61218
4.14542 5.77971 6.49521
5.20255 4.99809 4.61704
11.8857 3.84698 2.75252
7.5012 6.61688 6.82355
5.0906 4.18522 3.96646
3.44183 2.04279 3.52438
2.83693 1.41951 2.69467
10.9388 7.86017 8.39412
4.96264 1.86745 1.89866
7.74248 5.32691 6.08036
4.90976 4.3631 3.73206
10.1421 5.42086 5.9729
1.69153 4.70863 5.98942
7.86467 2.93664 2.18369
9.77173 6.44906 6.91734
2.98413 2.80241 4.77593
3.34897 5.67536 4.47057
11.357 10.9154 14.0841
4.8924 2.92245 5.19136
9.19786 9.82074 10.1465
9.55272 5.99962 5.84079
0.97799 2.94336 3.66422
9.4842 7.86336 4.9036
5.08687 12.4528 13.0185
4.26371 1.59028 2.85242
4.31249 0.828489 0.883637
4.21062 1.21729 0.903379
7.28689 7.38841 7.49482
8.66425 5.7958 5.25468
7.16447 4.52529 6.13279
5.55999 4.48498 4.63252
1.99001 4.20788 6.64321
9.67953 5.25643 7.32267
1.94641 4.90056 3.93305
3.84253 1.37406 1.80581
3.32683 2.23258 2.2894
4.49727 2.21099 2.92565
4.31297 2.72811 2.89412
11.2291 5.83049 6.35302
2.44938 3.2249 7.05689
11.9738 12.8982 12.7171
2.13839 4.49193 5.86649
2.97445 2.41074 5.36742
9.17315 7.14912 7.89207
5.47534 4.19861 3.66425
2.62815 3.10808 3.30072
5.24236 6.70911 5.47822
0.826448 6.00404 8.31059
2.89813 2.28722 2.93558
8.73979 7.78159 9.0089
4.7294 3.64281 6.40739
9.33731 4.91459 7.81576
7.39423 7.29235 6.79679
7.84401 10.386 9.64664
5.01203 4.46763 7.10092
2.74088 2.6369 2.2589
0.948306 1.11703 1.64937
3.56493 2.4106 4.41662
4.87976 8.17032 8.68447
2.98115 6.41955 8.33751
5.90383 3.65602 3.39772
2.91944 5.33186 7.41514
5.17357 6.17774 7.42013
4.83017 3.77448 4.39638
5.10468 3.28314 5.65018
5.85994 2.3924 3.73305
2.159 6.29345 7.45835
5.03871 3.92371 4.28656
2.33985 1.33773 1.76912
3.97195 4.33288 8.79422
4.33508 3.24609 2.69421
3.63596 1.37602 2.77123
2.38889 4.08968 4.84272
5.1818 5.68311 8.98906
8.50262 5.74428 6.68464
4.69237 2.40832 2.65166
6.85103 7.04562 7.31635
8.52126 11.0372 13.5427
7.9026 4.07806 5.96104
3.40754 5.5686 8.03661
3.98595 3.33573 3.99918
2.19378 3.04604 9.86902
11.8296 7.03825 3.87028
7.18555 8.06864 9.19881
2.50667 1.49368 3.54447
6.60244 9.0686 13.2108
8.03571 8.30509 9.86045
0.974183 2.85686 5.27276
8.03299 3.28523 4.43431
2.62654 1.84424 3.40647
5.36931 2 2.78164
5.0394 4.13986 3.30951
1.81098 2.88995 3.20424
7.40401 12.7841 16.94
6.94014 10.9142 17.0439
5.77424 1.14846 1.66148
4.97163 5.58709 5.62809
2.49528 1.96605 2.89276
2.69592 4.90523 8.24639
8.02717 7.03024 9.62895
4.39766 5.55404 6.33145
1.61987 0.776234 3.24288
6.18318 7.81126 9.97085
5.70825 4.35794 6.38443
2.13011 3.54011 5.71899
2.97813 3.18367 3.02751
0.801934 2.34568 4.4814
5.57593 3.84063 5.33075
2.35299 4.27458 5.27896
3.02016 5.15017 10.3837
5.35859 3.50549 4.07244
2.70697 2.40091 2.43827
5.99208 11.5745 18.4032
4.96021 4.06699 7.27267
6.23584 2.98295 5.49677
8.66319 8.46509 11.1696
3.75892 2.08904 2.97894
3.70124 4.11971 6.82117
3.96391 3.33265 5.64605
3.28026 2.98789 5.79701
11.08 11.875 14.3433
3.33363 2.68482 5.663
3.84289 4.30338 10.7046
13.331 13.47 20.143
6.99673 6.92728 8.54556
6.86151 8.71817 10.281
4.06791 5.57793 12.5557
8.44445 4.54268 7.2488
11.1107 7.46628 6.59618
10.5678 12.9387 17.2392
2.34204 2.85202 9.26567
4.90287 5.86367 5.57031
2.77793 0.932897 1.88577
1.38783 2.55589 4.35288
4.08874 3.00533 4.93899
4.06618 5.3166 10.9569
4.12517 4.28503 4.66316
3.28532 2.57053 10.0786
8.54406 12.2628 10.965
8.02517 12.2709 19.0739
2.10952 3.98676 6.67133
7.61777 6.34601 10.8465
8.64035 10.658 13.836
3.66424 5.30924 9.97435
5.42848 6.5733 10.6333
3.61827 4.30946 6.88977
2.55789 1.84879 6.05943
5.18652 2.5998 1.77116
3.25424 1.40356 1.70809
3.07638 6.22548 7.39101
3.21699 3.98445 10.9765
8.49261 8.86798 18.2031
7.24168 7.05489 7.72017
2.57723 1.88581 3.11803
2.1536 1.84451 5.44585
5.52315 6.9899 6.10831
4.7344 8.54664 16.7998
6.04822 8.15643 9.10715
1.20867 0.927661 2.79052
2.99664 6.69876 12.1089
5.2043 3.54627 7.40437
5.77851 3.99925 4.00737
2.9873 5.27376 12.3523
3.61501 3.2319 2.98018
5.6233 6.14707 13.5922
6.13103 6.85954 12.0114
4.13319 6.02142 7.90176
4.73631 8.62119 13.2152
1.59061 2.89704 12.4464
8.05661 8.57473 7.39037
1.18674 3.13499 6.09096
2.11702 2.3134 5.87274
5.03439 3.70881 5.87402
2.12826 1.01686 1.26633
0.640702 5.22415 11.5608
6.11567 5.29114 5.35923
0.589336 4.33713 10.5141
4.9315 2.02515 4.08288
3.86804 4.0982 4.39438
3.80528 2.91746 6.18671
1.67594 4.46234 9.16501
7.79154 5.48742 7.16533
4.36014 5.12879 9.65796
2.73007 7.69854 13.785
5.45285 5.32751 11.7068
1.80644 0.576279 2.56026
2.73306 6.02266 10.1874
5.18823 6.95725 16.7681
6.52274 13.0225 21.4753
8.56451 5.09837 8.08052
7.43242 7.63556 13.7428
8.60038 6.43337 6.64093
4.76741 3.63907 6.94748
5.3126 8.12016 12.6104
3.32335 9.31437 18.6166
4.24689 4.44078 9.17229
5.9159 7.51392 11.055
0.986198 0.478237 3.50434
4.38702 3.00089 4.7897
7.97509 8.15681 12.3015
1.27888 2.14774 5.88557
2.47508 5.68593 16.5904
8.75357 14.0421 19.921
5.04303 4.27743 11.2613
4.04997 5.15762 6.85198
2.0421 7.63394 21.4289
7.9958 9.97029 9.96101
2.134 3.19801 5.0213
1.80886 4.11779 8.53757
2.98573 3.23573 6.36146
4.26128 3.03682 2.6788
3.52508 7.12564 15.2028
3.19861 3.43086 8.27146
4.64807 3.3885 6.06127
3.25038 3.52825 7.84527
4.78388 5.25624 9.19127
6.44463 12.2359 26.7484
7.73002 8.64691 15.4546
5.66509 11.6795 15.3067
3.29183 5.73463 14.2542
3.11705 0.904513 0.466841
3.86221 12.1807 32.3761
7.50162 4.4348 8.65841
6.23492 8.5914 6.68706
5.33739 12.3954 26.5046
8.2809 7.84006 11.9541
3.07874 6.38219 19.0166
5.2337 6.34488 23.1937
7.14366 9.78065 15.8166
7.55227 13.535 16.0083
1.72497 6.63578 23.8361
5.20029 4.24173 11.884
7.0485 7.40676 4.72258
3.767 6.92141 8.16869
3.95215 8.92075 25.0031
4.07088 9.11186 15.2839
4.5568 6.14836 10.4046
1.08286 1.65392 5.96203
1.5605 1.24112 7.77689
5.89044 3.45637 1.94302
4.42781 5.43307 5.0276
3.47537 9.97208 25.4286
7.17431 9.05889 14.2887
2.88862 1.70368 9.39028
8.19743 7.76174 11.9805
3.79254 7.8044 22.0498
2.53274 7.68101 9.16095
0.827245 2.12796 3.6489
4.37018 4.45695 11.3508
1.98771 11.7857 34.5929
6.7735 8.77431 11.8869
1.78626 2.46626 8.62804
4.05895 3.24199 3.76037
2.30397 2.13841 3.81696
2.51796 2.9942 4.49702
3.23035 6.03179 9.27252
4.22705 5.37094 11.0338
2.55424 8.21181 17.4702
2.77981 3.11591 3.1108
6.31901 14.5933 24.3079
2.81988 4.40938 10.3972
2.86208 7.10406 13.2291
2.18498 5.80036 20.197
6.21194 4.1278 7.26645
2.73044 8.43848 15.313
5.78616 3.73782 5.32716
1.14397 2.50266 5.27705
0.618939 7.81427 19.1134
4.8886 3.95971 5.44339
3.06357 6.50533 13.3905
2.15297 2.11852 7.50758
5.87169 4.99444 5.81717
3.10156 6.66263 14.6887
3.9749 6.63586 16.8775
6.33748 8.80931 16.0658
2.20123 4.58392 20.5611
4.54784 2.56651 5.45129
2.44283 4.98875 18.0308
6.66716 5.87951 9.69512
5.79183 6.62451 15.4279
4.91288 7.46844 8.46741
1.22442 3.15549 10.5213
5.85874 9.74101 23.5213
3.82908 3.97356 6.64171
4.41021 8.4245 16.2989
5.59622 4.68333 8.08562
2.3159 6.88883 11.5478
1.78628 4.47071 19.971
3.93609 4.83852 6.6828
1.18217 3.94643 6.53351
2.05829 2.16387 10.1301
4.20571 5.84676 9.42326
1.72683 2.21801 6.80647
0.788832 6.05439 13.7882
3.17918 2.67407 7.72223
5.79619 11.0749 31.4587
8.57478 13.5024 21.6681
2.30822 6.48232 15.5795
4.39034 5.03534 19.8273
4.58474 5.91909 11.0128
4.55536 4.41058 13.5997
7.03801 5.61099 5.42831
2.29844 4.03365 8.87478
7.74895 11.8391 18.5389
1.38961 0.93851 4.1579
2.27659 6.08178 12.2078
1.76066 4.71101 10.0879
2.36346 2.53889 5.25487
1.65832 1.17384 3.78632
2.49458 2.78236 9.12503
0.775107 0.564809 1.82132
1.17692 4.05113 13.9395
4.28773 7.20602 15.9474
2.19218 4.65979 7.14512
2.6403 3.24821 8.89061
2.45551 7.73447 14.3646
2.71357 4.28933 8.8205
2.90885 8.79599 31.2029
4.9784 10.1593 21.8148
4.31706 1.932 8.18447
6.42993 6.61852 8.1097
2.27747 5.66584 18.9942
5.50599 9.06093 20.6268
4.82787 4.23573 6.23688
0.542372 3.14219 16.2238
3.73299 2.97315 1.71714
2.23571 3.42895 5.09157
1.30942 4.43332 9.83051
0.846989 7.0966 24.3917
6.8296 9.08979 19.9666
5.94498 9.22675 20.1597
3.34116 6.09545 11.4818
2.65122 1.74815 5.69353
2.4151 9.57998 29.4819
4.55657 4.44581 16.1006
6.7476 8.60959 16.8687
5.36761 10.9201 10.4081
2.29573 10.9439 32.0813
3.51643 2.1564 6.57996
3.94529 2.91261 8.31714
3.00086 6.47514 14.6034
5.95536 10.647 18.2974
3.68134 5.70229 13.38
0.791465 3.00889 16.9764
1.05604 3.67454 19.5354
5.31621 15.2622 36.2459
7.40826 6.45685 10.4632
5.13207 12.2363 24.8026
2.30669 1.62726 6.13093
3.5664 5.4585 20.6444
2.7053 3.06446 7.7873
2.88482 1.55748 1.81311
3.38902 7.01309 20.3921
1.53462 3.40724 4.53715
4.19405 13.5267 27.8446
3.84116 3.8312 13.184
2.01636 3.92945 7.55768
3.24131 4.6445 17.8139
1.57489 7.63046 23.8412
6.52641 12.2295 20.174
2.82843 3.77205 13.5076
1.61229 1.16404 5.66065
2.90171 8.47145 21.4715
3.73851 6.98621 26.0849
4.59018 9.57418 29.2936
6.79044 4.91695 3.99319
5.3644 11.7417 13.6214
1.36449 10.7773 46.9196
3.67025 2.38776 9.07555
2.66585 6.30126 20.1341
6.5495 15.7802 28.2763
2.37618 2.80051 3.73644
0.761619 3.43779 17.5239
7.05986 8.22137 11.0724
0.388992 0.616623 2.21453
2.9316 5.3817 9.29558
2.702 7.12433 26.0159
1.377 3.17668 11.4052
2.96555 6.4358 16.0553
3.97894 15.2388 55.9468
7.11047 11.0719 21.1292
2.70602 8.5739 16.9852
3.74002 2.97026 10.0202
3.56061 7.43073 8.13712
0.890748 5.18311 14.0769
0.848045 0.676652 6.88971
2.53033 4.17319 5.44005
1.48744 3.13753 5.71518
1.51351 8.34952 26.1504
3.43108 4.40799 11.4579
1.0172 3.42083 12.8487
2.66455 2.1936 6.96631
1.59268 6.90715 21.8759
4.11958 2.87393 4.38646
2.14865 1.76867 6.71842
3.37205 5.25777 8.89097
1.03253 4.63966 10.8537
2.00309 13.6315 54.2012
9.21888 11.0753 21.1829
2.56689 1.43418 9.03849
3.36407 5.34522 16.7123
1.73206 3.38456 14.8967
4.75475 4.47016 13.2359
3.97445 10.0935 13.4473
1.89772 2.69315 22.0725
6.78344 19.1633 38.3629
5.32154 10.8366 16.0292
3.31341 9.6834 31.0901
3.34861 3.33743 11.9294
2.72611 1.88519 10.908
2.63247 2.72254 11.9704
4.50176 3.79808 3.39364
2.07131 1.09246 9.46492
7.37765 14.4752 30.4397
1.43321 5.8489 10.8258
1.34971 0.980324 5.59775
4.1469 6.19049 12.6195
0.595593 2.80395 15.6707
1.99955 4.06701 3.33335
0.478158 2.25568 15.9784
5.35776 10.7705 17.6178
1.16184 3.9638 19.621
4.68446 3.77985 7.92687
5.99807 9.76349 15.9136
3.27655 7.70438 22.8222
1.15936 4.81695 24.5831
2.15265 4.40211 8.41805
0.45388 5.28007 14.7045
3.42557 3.80838 5.33089
0.690695 1.697 6.61169
2.25403 5.27109 18.8345
3.54218 5.56167 25.8741
3.32243 12.4917 14.052
1.1788 5.19201 9.57305
1.66867 12.578 33.5126
1.6056 3.63258 17.5308
2.47811 7.80233 27.571
5.16167 7.65826 21.0657
2.46801 3.43974 8.51991
3.2305 4.5695 9.83151
1.23478 7.1743 26.9537
4.21422 5.87574 13.9202
1.23408 2.70634 18.5124
5.20653 6.46913 15.0122
2.65338 2.91551 10.1445
3.91494 11.6277 17.29
2.26651 11.0719 48.7364
5.56882 4.55648 6.69251
1.98006 9.15379 38.4398
5.72971 13.9996 26.7375
2.7911 5.15668 17.251
1.99737 5.08755 21.0312
1.68095 3.5598 14.4659
2.92407 1.40104 4.95917
2.14787 6.08969 15.8202
2.8844 4.46009 12.3719
3.09073 12.529 34.7191
5.13912 8.27889 25.96
2.82746 3.68077 11.2054
1.95239 5.86432 11.1262
3.07025 6.54881 19.3134
3.63201 5.66603 23.5942
4.42706 5.48722 13.1719
2.19481 4.46639 22.0516
6.40827 5.57272 5.27042
3.57263 9.32091 21.6736
0.821875 0.529701 3.45708
2.89792 3.15008 8.89971
3.33314 8.74488 27.201
1.87964 4.95146 11.946
2.10338 4.18832 8.97733
1.8356 10.9178 31.6474
2.6411 2.06208 10.9678
1.65218 1.41943 10.2447
2.65057 7.3604 16.7773
1.61341 3.68342 3.57169
1.30547 6.14104 29.7611
2.09279 4.66337 16.508
1.734 3.66921 16.332
1.9519 1.74656 8.84861
2.21402 8.93421 25.7183
3.75901 4.20655 24.0734
4.87326 12.4222 15.8843
1.63197 4.69097 11.0182
1.30071 8.33536 32.8511
2.27929 3.85282 5.91178
0.684442 3.50013 11.619
1.87072 9.47586 36.5433
2.61143 0.90193 13.7408
3.68592 2.35318 12.3341
4.37749 11.5189 8.92746
1.98706 17.5052 42.4284
3.88081 4.61866 13.5661
2.73689 9.36497 55.7359
8.06727 15.9898 26.4183
2.15676 3.91419 14.6499
1.071 0.941041 6.45708
1.54157 4.80008 12.0166
2.39131 4.84882 13.3726
1.08994 6.70037 19.9777
2.57625 6.18506 14.3561
2.86365 3.70941 20.4879
2.38667 13.4657 56.7046
7.26578 10.8202 14.1835
2.10235 8.22087 26.1759
1.24961 3.46571 8.7041
2.44724 7.44263 28.7233
2.5274 7.69287 20.7029
2.30672 6.97109 22.5358
2.96825 1.28566 5.7337
3.41352 7.29836 16.9288
1.28104 2.35206 9.10995
2.18 11.7906 25.728
1.45163 6.50142 34.2596
3.24045 8.33765 27.269
1.13691 2.8326 18.9793
2.36713 14.7019 23.2837
1.18114 5.19525 22.1847
2.85304 0.88383 9.6773
1.41628 3.82451 3.64598
1.26499 8.37407 39.7947
4.41362 14.8678 33.3051
2.39105 1.6171 5.66833
1.20251 3.52547 22.971
2.9346 2.77914 26.4017
5.44932 9.44788 29.6964
4.80792 8.1987 13.486
1.72801 2.13577 19.5621
2.83216 7.68423 15.0028
1.54427 9.85878 29.9084
3.70889 3.12206 10.852
2.14476 6.87465 14.6125
2.00715 5.13513 23.3077
2.85585 4.0994 25.4556
2.49106 3.66176 18.2297
2.23765 2.40674 15.7263
2.35996 7.68545 9.97707
1.35564 3.70789 9.06667
2.29374 4.62978 8.06698
1.08479 4.97904 17.7286
0.923234 6.03354 20.1997
1.55557 3.70567 25.0832
3.85455 13.7161 39.0147
5.40938 5.83109 11.4868
1.82877 5.24124 19.1039
1.7068 1.59885 14.2579
2.5672 7.79214 12.6811
2.05616 3.12756 16.4674
3.51759 3.21373 10.682
3.16821 7.83264 14.6377
2.44546 4.49957 8.53892
1.205 4.60826 21.4731
2.30093 7.78636 20.595
1.1702 2.09684 17.1366
1.75785 3.90239 19.0654
1.97446 8.27259 33.1535
1.86264 5.52771 16.7118
2.16144 1.81117 8.4592
1.22908 6.75129 33.6298
5.58842 4.34387 9.92657
2.89118 1.76302 3.98865
2.79126 4.39777 14.7281
1.55539 1.87411 25.8063
5.58752 13.2135 16.4333
2.85374 6.68523 19.9184
2.74822 3.43776 3.65227
0.820498 3.3025 11.969
1.24232 4.54256 16.1419
3.41419 5.75216 9.33252
1.41649 7.3165 30.0938
1.79039 3.05807 11.2188
1.80084 6.38514 20.1529
2.00056 4.57589 14.2417
2.31046 3.12447 11.0729
3.9272 7.47015 18.5154
1.76512 6.09272 15.7779
0.768157 1.50469 7.22941
0.520171 5.77617 34.7682
3.11624 2.5538 16.8002
1.43571 7.62606 38.8854
3.67044 3.9357 23.9132
3.14655 4.99626 16.5674
3.04764 8.79972 12.3671
2.50253 14.2587 29.2796
4.52612 21.6763 35.5321
0.955826 6.99208 48.5669
4.67943 4.9997 20.2369
4.56444 9.39292 40.0065
3.79101 12.9588 28.5625
0.522659 4.05947 22.7869
1.98472 10.494 35.2045
3.99644 12.0011 34.9155
2.1705 2.25011 18.3683
3.50576 6.98257 33.7116
3.42198 7.99975 6.71763
0.946971 5.83597 18.3566
1.90411 6.96963 34.2955
2.40297 13.0649 50.5168
4.73717 7.8347 14.6184
2.08075 2.82377 8.74016
1.72733 3.38642 23.169
4.88779 5.6584 14.1492
1.94349 9.58717 37.9537
3.76976 6.22481 7.43053
1.87132 6.2601 38.4709
4.42901 9.50043 23.7748
2.00225 2.98009 4.90894
1.23672 1.57924 7.58156
1.26043 3.74303 6.7757
0.662361 2.26742 26.2789
2.31134 14.4138 48.4914
4.94634 4.99472 15.5018
1.68013 3.18032 27.0663
4.02115 16.1055 27.4281
0.342705 3.22431 41.3503
3.46836 13.3378 36.0466
5.05712 10.8326 42.6627
4.64905 11.963 39.0659
2.85993 3.60594 7.43301
2.01646 7.73275 20.646
1.4443 5.23129 7.25864
0.771446 5.46391 20.6943
3.02062 11.2773 23.3869
0.767501 1.3564 11.7597
0.888663 4.79102 19.3943
2.86149 2.51809 5.14549
0.341991 2.44325 16.7267
1.83926 5.9712 16.1491
1.15738 5.90111 23.745
1.31254 7.38718 16.5921
2.29972 3.68045 28.2477
3.48676 3.41237 1.94598
1.34257 1.66919 6.0797
1.4612 4.85647 20.4887
2.8264 10.9785 43.1667
1.47486 3.95724 4.93818
0.731342 4.04603 19.1897
2.03076 2.28872 9.85778
1.67388 2.25502 5.24824
0.493349 5.00806 20.4921
2.42031 2.59933 13.4813
2.15771 3.17358 20.901
1.0056 5.82862 23.5366
4.40705 15.4602 50.0695
3.14775 9.14841 20.6356
2.19862 4.67047 54.7937
8.28815 14.4176 26.665
3.30094 8.51926 15.756
1.60874 3.86277 22.0209
3.06379 10.063 23.1645
1.51699 4.30924 31.0731
1.54095 5.76133 23.0502
3.47308 6.5094 23.3615
2.54212 4.34812 13.2789
0.717814 3.96769 19.5886
0.98717 3.78337 14.5111
2.12437 4.82802 26.8877
1.21378 9.06362 23.6613
3.04952 10.3341 32.601
2.78096 2.25745 25.2971
3.33199 17.01 36.8338
1.32433 2.15971 7.53313
1.96493 5.71077 26.7278
1.92506 3.86042 17.6605
1.20752 5.56082 27.4826
3.10967 10.1729 21.2295
0.828032 5.41321 22.6822
3.09083 10.1561 15.866
1.51786 5.05311 12.5257
1.73169 3.4902 29.1431
2.3458 3.5898 16.1268
2.67477 7.11033 17.6618
1.20688 5.22451 12.1289
2.06629 6.05233 29.9286
3.40244 3.48585 20.9875
2.66545 4.4094 4.6535
1.29536 4.42339 15.7219
0.746064 5.61604 19.5156
1.54873 7.64109 30.8929
3.45698 5.47922 25.7558
2.86825 4.2479 34.2835
5.71045 11.0316 16.1637
0.368632 1.14567 5.4267
0.690801 4.31785 22.3677
1.0772 8.45946 33.0176
4.08383 4.00035 16.1594
2.07167 6.12626 30.174
2.43979 2.12974 26.2751
5.37819 17.1804 41.6687
2.91267 8.34478 15.5447
1.34108 2.83625 36.2434
4.23785 15.0944 46.5307
2.79359 4.75465 6.24973
1.70489 2.06835 12.646
0.853035 5.25708 25.9754
2.37004 14.1809 42.6363
3.31608 2.70465 15.2023
1.93817 5.03003 19.9935
2.6637 1.00084 15.1933
2.89445 10.7515 47.8139
5.43547 11.0383 29.3816
2.91465 9.09069 22.6548
1.43708 3.26429 10.0838
1.7955 5.91434 19.9947
1.40969 6.20004 23.3279
2.40974 7.7109 43.5589
5.24511 11.1528 37.4303
2.09465 3.23963 4.04571
1.25484 3.7514 12.1805
1.31153 1.19011 10.5441
0.997359 2.59653 13.8382
1.31703 5.69704 13.8534
0.978377 8.55085 41.6615
3.04381 6.19358 21.4533
2.20484 4.22122 9.34355
1.60506 11.5367 23.1213
1.38648 4.91029 27.0184
2.53215 5.13103 23.476
2.1101 3.54834 36.7683
5.54906 12.7285 16.1994
1.0534 4.01447 20.5315
1.45593 10.0223 49.0503
2.09173 3.13054 28.5171
2.58217 8.06297 13.6427
1.28268 5.20826 12.3624
1.2506 6.20877 37.0278
3.89622 4.223 10.4507
2.28221 9.95718 56.2191
3.97065 5.25915 9.33542
1.33495 4.1049 16.9877
2.23466 21.0651 106.309
6.17849 8.04586 33.9195
4.66553 21.306 28.3901
1.16851 8.42167 23.515
2.07197 1.96273 12.923
1.79189 4.55891 28.7819
2.95271 7.49873 15.5869
0.840905 4.63288 24.6644
4.53507 10.6174 39.3767
1.3988 5.35748 20.008
3.71474 10.4613 36.0633
1.24001 4.36365 12.5753
1.33522 5.20354 21.6107
1.78879 5.10154 26.4665
2.45697 13.5709 45.4418
2.82526 6.5167 30.4893
2.36131 10.9196 29.6443
1.74935 5.84871 35.9269
1.83198 10.1434 40.1819
2.17434 8.04639 30.5534
2.2692 6.59578 14.5168
0.825513 7.17371 22.1414
2.39777 6.28898 14.8673
2.1043 4.22601 14.1558
0.994891 4.69253 10.7505
0.99543 2.87629 14.1198
1.9099 8.23395 37.1692
3.09003 1.92216 15.3785
2.45551 5.62805 18.3188
2.38761 1.10982 9.15188
2.46139 8.48095 53.8751
4.30062 11.84 30.37
3.3095 3.87945 14.0449
1.66489 1.30395 25.0448
3.0032 5.6434 42.9561
3.99567 9.4399 15.3931
1.97397 10.3757 27.0509
2.76265 3.65954 9.5635
1.04261 2.24977 23.6929
2.23559 7.8912 10.1079
0.25474 6.31685 24.2231
2.6151 2.3403 11.611
1.47371 3.00763 44.6972
5.18961 11.716 27.2099
1.30427 9.98004 47.5044
5.1464 13.3668 30.9192
2.14638 4.61782 22.5649
1.59473 2.11437 14.6479
2.46515 7.64114 19.1041
2.72783 19.0409 79.189
6.07145 10.1883 26.0262
1.15196 5.79025 42.3395
4.25862 14.1017 26.3355
1.92824 3.38744 27.5231
3.25861 5.65272 25.985
1.29154 1.55947 5.61707
0.948974 3.15826 28.6178
3.88882 4.74823 11.5767
1.8808 5.21614 25.3801
2.35544 3.8765 40.7707
3.22363 11.2394 9.16481
1.88334 9.09464 37.6661
1.16573 2.04409 46.6289
3.0965 7.41841 43.6192
4.81335 23.3932 35.486
2.17791 5.82574 44.4161
3.17061 6.63503 27.3869
2.97346 7.06456 6.89771
0.288061 2.11136 18.1613
2.22214 13.1641 42.2605
3.2219 5.70045 33.2113
2.9197 11.5935 31.1871
2.52571 7.11136 21.4055
2.52746 8.77173 16.8836
1.45505 3.29521 48.9328
4.09686 6.74859 16.4835
0.833286 5.46701 15.2282
1.06672 7.55604 34.9944
2.93245 6.64025 12.4905
1.61926 4.26005 30.879
3.16729 8.62316 36.8318
3.23148 5.06356 13.7096
0.537385 3.51228 6.40918
1.37731 5.35522 14.5469
1.28152 5.11375 29.9906
2.43559 2.45197 20.4126
2.11963 10.689 46.9696
3.85217 8.40994 14.843
1.9349 4.27507 12.4414
0.594014 9.60714 40.8133
3.65534 2.78011 33.9322
3.866 6.60718 14.8976
1.93428 2.98195 27.8525
2.9531 7.33718 11.0192
1.75622 2.1702 38.3287
4.97925 11.8087 23.6655
1.3428 6.27469 30.7069
2.40116 10.1017 38.2544
3.35309 6.87368 8.96716
1.76776 8.16798 36.7721
3.36103 7.83104 31.4759
2.18003 5.66191 19.382
2.57625 9.42895 39.1501
2.12525 4.92752 24.1526
3.70446 6.85487 14.6735
1.0087 2.8044 20.6077
1.56757 6.95425 5.71437
0.845882 4.59477 21.741
1.02327 0.841629 16.5842
1.70674 7.78745 28.2765
2.7484 17.6365 62.785
4.30304 3.5543 6.42234
1.11712 2.2602 20.5358
2.01963 5.10925 12.9672
0.862905 7.19537 54.4213
5.15743 9.74051 33.2833
2.41457 5.27477 9.80412
1.03833 9.82846 53.6722
2.43183 9.87469 43.2029
3.82035 7.67058 12.1681
0.525586 8.10648 21.7282
2.44812 5.42649 34.0579
1.4014 4.25577 44.0807
3.91834 3.91986 46.771
3.66726 22.6313 39.8778
1.6014 3.48596 7.19278
0.654143 7.69544 38.7285
3.36604 6.53229 18.1016
1.90074 4.02126 25.2011
0.871342 6.692 24.1745
2.50469 10.8134 40.2215
2.98464 11.3881 42.3125
1.84335 3.81406 14.7407
0.992101 11.1753 50.8873
5.00893 6.57904 29.0711
3.43794 5.23214 23.9383
3.60193 18.1012 40.7283
1.33633 1.97341 14.2167
0.989426 10.2477 29.7887
3.66249 6.97289 53.1722
2.81012 6.40755 13.2892
1.39244 2.8672 12.3507
1.21774 1.36357 25.9693
1.7709 6.17186 11.8902
0.812716 7.13709 5.3562
0.953112 4.2654 17.2026
2.68476 7.34319 12.9874
0.502654 4.6962 25.2629
1.37862 3.44777 14.0923
2.14011 7.54649 36.5824
3.73934 1.67063 20.4227
2.76936 19.3973 51.1246
3.24727 0.65186 17.3246
1.15677 9.15411 52.869
3.51049 6.27998 19.3712
2.58492 3.397 19.2322
2.77399 5.33906 20.3914
1.13661 3.27465 27.2565
1.72909 2.13328 28.3124
3.28061 6.98807 9.40804
0.952579 6.53094 69.9724
5.51405 16.1843 9.59532
0.436962 5.8463 36.8877
2.39586 3.36966 10.424
1.62294 3.89957 26.4053
2.13341 6.71449 42.8202
4.40602 6.4981 14.1351
1.54232 2.4955 6.22063
1.57353 4.84676 23.1596
1.18101 8.24009 31.0507
1.1507 8.81044 38.67
2.70216 3.43485 15.9636
1.57997 4.65269 10.3478
1.16751 8.63671 33.6259
2.7339 8.15322 28.1159
2.85732 2.75483 17.592
2.1677 4.90773 41.7169
4.19298 11.9244 44.9832
2.08814 5.49059 38.9632
2.99353 11.8067 12.4185
1.92775 5.54456 12.5524
1.95097 5.21712 9.80164
1.07687 7.0899 36.4682
3.7242 3.94928 62.8924
5.56321 12.595 24.3376
3.18584 17.8768 99.0965
9.50376 22.1261 38.8511
1.96926 12.8636 15.394
1.3713 6.47533 28.6591
2.05355 5.51142 14.2447
0.817834 3.67062 38.2643
2.15043 10.0254 42.0851
2.21824 6.21446 36.2935
3.82406 12.3582 26.5155
1.21203 3.66795 9.9786
0.893738 5.17548 48.821
4.15369 13.6187 37.1055
1.59186 4.15014 3.44642
0.485014 4.74681 12.4534
2.11452 4.08598 25.1282
3.16771 9.03876 67.6496
5.14289 10.7847 18.693
2.20695 4.20761 11.4616
0.953595 5.74069 10.2464
1.58713 6.68748 24.4974
1.29235 1.30158 18.7538
1.34297 12.4017 50.3625
2.44033 8.37466 27.0752
3.40612 4.16497 16.8972
1.74069 13.4103 59.903
3.54642 5.72967 21.0136
1.59649 5.10596 17.3559
1.14083 2.81481 6.77225
0.453571 4.19972 9.77814
0.564601 8.26824 49.4141
4.88619 16.9007 28.3108
1.54981 4.65981 56.1355
4.61707 13.8655 79.3333
3.85568 10.8319 7.24946
0.918062 0.565871 14.0365
1.88621 4.66861 5.4603
0.464047 2.12372 35.9537
1.72446 15.4685 45.3248
3.4225 2.7993 3.84044
1.10108 2.07472 19.7714
1.4653 5.88316 19.7811
2.51204 5.37315 8.95185
1.02504 0 0