# pn-170911/RbIIA-23-KOKB-1280-1959.psd
# Power spectrum* (dif=0,1,2) (really just |FT|^2)
# NOTE: only the first half! (symmetric)
# weeks: 1280-1959
# 3 clock-days, 0 excluded
# PSD: 1441
1716.12 0.110587 0.00274051
89369.1 0.158732 0.00681153
1.8483e+06 42.5722 0.00944621
64161.6 1.12219 0.00632696
186432 11.3446 0.00912416
24047.8 2.27764 0.00706712
1884.74 1.37041 0.00762676
5262.59 1.08393 0.00527094
8187.41 3.14564 0.00641823
10470.1 2.01242 0.00929028
2573.01 0.977517 0.00685722
4785.29 1.41675 0.0080875
1397.39 0.862119 0.00882368
2062.4 0.658921 0.00807116
2825.77 1.45542 0.0101506
1488.11 0.953487 0.00593682
2036.25 1.50825 0.0140891
1841.34 1.19357 0.00873468
1118.78 2.20516 0.00499826
918.126 0.700588 0.00814671
1935.32 1.69901 0.00549373
1173.07 1.27892 0.0170248
726.415 0.874995 0.00858765
605.719 1.31075 0.00966815
389.562 0.888891 0.0160698
258.02 0.448041 0.00690185
1018.32 2.99343 0.0189456
1206.88 3.08819 0.0237094
1245.65 2.91687 0.0126045
596.262 2.91619 0.022538
555.822 1.45779 0.0197772
324.688 0.491944 0.0122181
772.972 1.89676 0.0161892
348.716 0.589377 0.0114726
1071.82 4.14973 0.0430487
285.549 0.760458 0.00873006
167.974 0.759849 0.00816769
199.432 1.11406 0.0081728
60.0646 0.394119 0.00804797
426.25 1.24012 0.0208101
128.501 1.48225 0.0172359
563.952 3.57365 0.0402675
545.798 2.32755 0.0370217
30.6307 0.343069 0.0149191
105.134 0.865947 0.0223102
285.135 1.72706 0.03218
341.952 1.69593 0.0151194
219.098 1.16689 0.0316826
258.403 1.34379 0.0297762
66.3151 0.163337 0.00956273
116.4 0.611333 0.0183757
226.243 1.24355 0.0167658
35.251 0.939614 0.0104089
81.5932 0.465846 0.00245889
328.715 3.41819 0.044942
253.121 2.96307 0.0164091
71.2534 1.71317 0.0326257
27.2149 0.582098 0.00645255
47.3922 0.333087 0.00445099
119.773 1.14837 0.0359817
92.4311 0.582351 0.0301965
184.738 2.45062 0.0199092
90.4686 1.32928 0.0364608
49.1722 1.65705 0.0378541
43.1766 1.25681 0.0369623
154.392 1.4214 0.0496288
95.054 0.773924 0.0264153
176.096 2.59093 0.0724866
62.5779 0.429495 0.00926469
140.987 1.66235 0.0434533
133.628 1.36155 0.0406285
159.141 2.48693 0.0736212
105.224 1.97403 0.055092
50.1703 0.830821 0.0268993
42.178 0.839198 0.0376172
81.3821 1.45485 0.0246252
101.969 3.30113 0.0952243
16.8412 0.440991 0.0295312
14.3064 0.758975 0.0263189
91.3361 2.30486 0.0907569
51.0817 1.89142 0.0929492
84.165 1.97767 0.0584067
47.4708 0.677217 0.0419401
118.075 2.04159 0.0962739
52.8846 0.504331 0.0162969
43.3415 1.03354 0.058205
62.7684 2.5671 0.100689
91.53 1.75013 0.0481046
28.9089 0.374934 0.0120844
68.6967 2.66818 0.0817833
102.977 2.81718 0.0840651
70.4014 1.63391 0.0910001
29.1991 0.349919 0.0145424
58.7065 3.10277 0.132966
29.3132 1.16694 0.0801643
32.6009 1.59437 0.0780532
59.5626 1.88306 0.0678986
63.252 2.58508 0.11059
25.9227 0.233775 0.011341
116.21 4.43681 0.22203
86.3518 2.49548 0.113452
38.0885 1.36133 0.0852497
81.6408 3.07543 0.115296
21.9421 1.04449 0.0386098
20.7885 1.01916 0.0700716
26.5941 1.18808 0.0588771
49.2194 1.85844 0.147984
43.8018 1.38311 0.0729043
73.7491 2.05453 0.126571
62.0322 1.94439 0.103974
18.588 0.874267 0.0525839
3.5951 1.01438 0.0786775
81.6439 4.67192 0.255617
61.2175 2.3404 0.133177
83.8418 2.70123 0.175482
25.3871 1.77397 0.0978452
12.305 1.78755 0.107529
48.5719 2.69697 0.233511
51.5235 2.04335 0.144467
16.7706 0.68474 0.0484098
9.07045 1.23867 0.0663495
21.4902 1.38861 0.106816
27.1707 1.13019 0.0923809
8.71692 1.24635 0.0811037
51.9155 1.77329 0.121628
16.1831 0.545809 0.0369905
59.2575 3.26248 0.277576
51.2485 2.2622 0.129157
10.8656 0.800922 0.0519609
27.463 1.76781 0.127483
35.6457 3.29804 0.28464
34.5749 1.50625 0.126746
23.7542 1.28363 0.129857
7.78552 0.678382 0.0395415
20.3093 1.21395 0.131983
17.9225 0.75324 0.0589454
21.1685 1.51902 0.104652
69.7148 4.81757 0.413961
44.4088 2.87351 0.271594
9.10217 1.2891 0.119993
14.045 0.947221 0.104412
45.2525 2.55982 0.230363
62.2544 5.41841 0.601477
20.9478 1.28441 0.067517
14.5147 1.03764 0.129058
22.9105 1.22379 0.0842257
33.6694 1.92417 0.171426
36.0603 1.68823 0.185934
23.953 1.20152 0.126381
31.3804 1.89869 0.270522
12.749 1.88998 0.151598
8.72983 0.794669 0.113064
24.1746 2.65233 0.336854
30.8587 1.73382 0.187288
43.3715 3.08999 0.311812
28.7816 1.62212 0.249668
8.05498 1.2657 0.111013
19.974 1.93273 0.238133
27.6095 2.42816 0.274395
3.74541 0.592826 0.085844
10.6378 1.23944 0.106837
8.76063 1.80645 0.265233
8.41762 0.628541 0.0605695
12.0726 1.58153 0.16544
21.466 1.83979 0.269713
19.1758 1.85388 0.217382
23.1769 1.51038 0.216727
18.2927 1.20009 0.210435
12.0351 1.74372 0.246738
6.38875 1.48549 0.199509
12.0004 0.843989 0.0829749
17.2619 1.6088 0.281604
10.9448 2.47904 0.326605
5.60593 0.278776 0.0398717
10.287 1.59119 0.300759
21.1122 1.94915 0.279614
7.81054 0.744125 0.105843
4.51166 0.795309 0.120882
22.2966 2.84473 0.389208
12.4647 0.654062 0.121001
7.1812 0.58531 0.0628914
8.29263 1.7374 0.287549
18.509 1.61253 0.24679
7.10997 1.37274 0.185094
10.6089 1.24254 0.209379
26.203 2.08894 0.310579
16.2327 2.80726 0.518743
26.7651 2.46984 0.389836
10.1404 0.858925 0.169542
4.54063 0.983784 0.151964
17.0447 1.6644 0.321427
11.2507 1.1412 0.225122
7.4438 0.604979 0.109549
9.67284 1.27389 0.302869
10.1634 1.33294 0.226229
23.1131 2.78196 0.531877
21.7643 4.11932 0.704103
11.3843 0.904824 0.207646
33.0144 7.00654 1.22845
8.128 1.15442 0.269726
6.94661 1.57931 0.298607
9.4828 1.63303 0.283015
2.67276 0.828986 0.168554
7.2555 1.40662 0.331954
5.29755 0.659573 0.115486
6.0247 1.76022 0.369463
16.68 1.64442 0.279779
19.2778 3.3895 0.721295
8.13344 1.77416 0.410922
14.7139 3.46171 0.976461
13.5192 2.67513 0.446283
3.80032 0.898675 0.156331
10.0847 1.45009 0.317222
17.8227 2.38232 0.487798
11.9351 1.35888 0.289304
12.0915 2.71721 0.60222
10.1029 1.99874 0.479999
3.98958 1.88723 0.37959
2.08615 0.866944 0.233042
10.8767 2.57277 0.611478
8.63363 1.06041 0.186246
6.01899 1.06165 0.254543
10.8762 1.53662 0.313204
12.4183 2.2502 0.581401
11.8169 2.32007 0.658614
2.1474 0.381076 0.111162
19.8987 3.23915 0.854801
14.5796 1.65256 0.297233
16.5742 2.1778 0.514971
11.3813 1.62417 0.333986
7.15462 0.728729 0.235199
3.98299 1.67454 0.412866
9.38908 1.41192 0.388036
8.69456 0.852733 0.231054
0.578777 0.294078 0.0840564
8.06578 1.75401 0.481854
7.56507 1.68982 0.584937
1.5884 0.980983 0.38394
7.86377 1.0688 0.281018
9.50705 0.992128 0.210962
11.0416 1.59104 0.407817
19.9705 3.49653 1.06014
3.77505 1.53024 0.425126
7.47801 1.16438 0.358897
2.80718 0.426131 0.152146
3.005 2.21981 0.715518
4.8272 1.72227 0.462249
11.0564 1.2661 0.313256
11.0367 1.63279 0.524218
2.8414 0.696658 0.308752
10.743 1.80257 0.465581
9.5365 2.14712 0.568415
8.13056 1.96791 0.701236
23.0978 4.58982 1.50184
1.7803 0.26416 0.132605
10.4567 2.9979 0.935356
5.07159 0.871157 0.277722
3.86245 1.27594 0.534021
6.43096 0.929189 0.333678
9.4972 2.33683 0.790867
1.55607 0.191578 0.0545922
8.93515 2.92117 0.724434
1.63683 1.08117 0.453342
9.79736 2.19431 0.509352
2.60913 0.79257 0.259708
6.20893 2.18384 0.647861
14.739 5.7533 1.99001
8.52057 1.66903 0.660247
7.21002 1.2279 0.259623
2.80671 2.18621 1.01113
13.6341 1.76133 0.528228
13.6181 3.0407 0.937242
2.56401 0.325869 0.130618
5.42123 0.556374 0.129373
2.34682 1.06937 0.37007
7.177 1.23504 0.499807
10.1182 2.29815 0.7793
2.53527 1.12124 0.419377
5.02514 1.78499 0.532131
3.86461 0.44331 0.173383
8.0972 1.39011 0.435686
1.05936 0.39253 0.180092
11.3211 2.60493 1.0145
6.61339 1.91861 0.826936
10.1812 1.87316 0.592857
3.95323 1.10774 0.431118
3.84787 2.11769 0.895621
7.65758 3.46231 0.945542
2.15237 0.826406 0.380554
7.64555 2.37024 0.795175
3.85326 1.56334 0.652694
3.11693 1.52532 0.468132
1.87765 1.01933 0.36109
3.67612 3.82585 1.72291
7.68029 2.04744 0.949966
12.2035 2.61008 0.931176
4.26994 1.06459 0.370731
4.41715 1.69437 0.571499
4.55075 3.31684 1.45188
9.07677 2.64374 1.32836
3.47147 0.876764 0.440184
12.7613 3.75826 1.63148
7.72508 1.94379 0.708774
9.56923 3.3718 1.22427
8.04983 2.5342 0.900419
7.59139 4.03615 1.94218
5.14227 1.43116 0.428206
8.17371 2.67547 1.21349
1.74738 0.766101 0.641683
10.2104 3.31396 1.07894
5.00714 2.03052 0.794756
2.40514 0.424351 0.217075
4.91899 2.9074 1.49856
6.49909 1.983 0.789956
9.69191 1.72875 0.557418
11.257 3.53876 1.53869
2.44546 0.6456 0.361762
6.24067 2.05269 0.783333
8.11248 2.6128 1.17421
7.47853 1.93787 0.980068
4.0521 1.52399 0.897237
5.42178 2.53754 1.52961
7.07071 1.29365 0.420891
7.02065 2.5557 0.982863
11.0799 2.91565 1.2327
5.80277 1.54988 0.881272
4.53413 1.58194 0.880456
1.78748 1.0727 0.476775
10.7864 3.62129 1.7526
4.26252 1.74603 1.30951
6.9702 2.556 1.35345
2.76091 1.3773 0.801989
5.23827 2.3905 0.989902
1.27189 1.78667 0.816975
4.77354 3.40699 1.72295
7.12755 3.07841 1.24136
3.27323 1.30073 0.828752
0.714836 1.30103 0.756979
5.61427 1.06879 0.442003
3.58467 0.980013 0.380984
8.07271 3.11369 1.31197
7.59023 4.29298 2.14509
9.27332 3.19783 1.4498
3.21997 3.39208 1.9767
6.37565 3.43282 1.80817
8.96197 3.59732 1.8836
6.33256 2.88882 1.61533
2.94554 1.53682 1.13004
7.8544 1.89081 0.96444
6.69596 3.83729 1.86529
7.31587 2.58376 1.45824
8.80606 2.67822 1.16794
5.76174 3.22615 1.93624
3.77155 1.41752 1.28705
2.91113 1.06853 0.418131
3.58041 2.84218 1.33972
5.94131 1.94182 1.22267
4.10205 1.39277 0.837696
4.00648 2.84268 1.88344
7.33461 3.72936 1.79226
5.35911 2.6552 1.79366
2.96762 1.54274 0.904948
4.26799 0.66772 0.282421
4.04209 1.99774 1.30133
10.3004 3.77488 2.20876
3.00176 1.77093 1.23513
2.18299 1.1907 0.759609
0.692402 0.92936 0.475938
3.34367 1.61741 0.955097
1.28463 0.50116 0.18101
1.81838 2.96 1.7748
4.98428 2.05319 0.812588
3.15766 2.10424 1.58748
9.85822 8.98642 5.71413
4.80398 2.5887 1.78339
3.4088 0.469714 0.134066
2.89298 1.01641 0.627762
4.83234 3.73982 2.66967
1.64533 0.733372 0.542587
1.39581 1.19494 0.988
3.54131 1.47882 0.903589
1.69922 0.942248 0.499003
5.17956 2.93783 1.87387
7.67907 2.34357 1.23783
2.82428 1.92232 1.56158
6.30367 3.32743 2.62704
9.04736 7.88809 4.73976
2.10684 0.382727 0.244074
1.11569 0.7554 0.940173
7.49415 2.39348 1.22071
7.86372 4.10824 2.72763
4.53351 1.46782 1.16238
3.57573 1.46226 1.13228
3.58388 1.63546 0.820595
2.89775 3.25964 2.59587
5.20966 1.71908 1.48528
5.44243 2.6801 1.30449
1.60622 1.08263 0.979349
6.65937 2.89115 2.36641
4.53468 3.28383 3.35442
3.27753 1.68952 0.751908
3.8071 3.08582 1.46558
2.41979 3.01429 1.6487
0.961921 2.00257 1.31434
1.82022 3.29985 2.53655
4.19688 2.27764 1.23992
4.21348 3.74802 3.42059
3.19164 1.2428 0.690951
5.18542 4.73215 3.38954
2.50451 2.36581 2.97369
12.7216 5.83648 3.44811
5.56617 1.74545 1.10359
3.76494 2.30049 2.35131
3.97372 1.64613 1.02375
1.4752 1.33546 0.879398
2.39838 2.43922 2.17581
6.39481 2.22836 1.51413
1.61594 0.802334 0.522161
4.15844 2.12374 2.01749
7.72898 4.46592 3.32031
1.67928 1.0633 1.49705
8.06515 4.88507 3.96776
4.48563 3.64638 2.21215
2.17192 2.11008 1.37146
2.36054 0.527603 0.275638
1.27793 1.16446 0.917417
1.96977 1.1847 1.40505
3.63641 3.87458 3.17781
6.26903 2.12327 1.27603
1.64157 0.824558 0.74136
2.37249 0.865128 0.989622
4.36353 2.55907 2.2981
3.54011 3.561 2.63387
2.53151 2.12073 1.53642
1.8089 1.61185 1.64898
3.15155 1.97047 2.04055
0.214258 1.70319 2.50846
5.44511 4.00351 3.02781
8.44966 3.67344 2.43603
2.16384 0.959816 1.28723
3.58497 2.02228 1.70603
3.03425 1.87898 1.81998
5.9907 6.45609 4.80199
4.21289 1.31695 0.665318
1.55514 1.29399 1.10313
4.09608 2.40089 2.62195
3.00267 3.70478 3.33388
7.45025 4.19438 3.20451
0.446234 0.167657 0.626064
4.97438 3.28289 2.19754
4.5817 3.11759 2.84727
5.91078 4.54138 5.20237
2.07414 1.70685 2.124
4.37202 3.8084 1.89902
6.07766 9.41885 9.28988
5.87173 2.85196 2.22274
5.5687 2.70348 1.77202
0.733534 0.895998 0.799433
2.41446 2.20955 2.57832
4.95266 2.91679 2.29264
1.13819 1.4143 2.34035
1.74891 0.65783 0.514971
1.89279 0.890028 1.61592
6.32319 7.10758 5.02295
4.06185 2.49672 2.12309
3.95067 6.57626 6.35127
4.28235 2.51493 2.62447
2.5399 3.07179 3.07633
3.79552 1.54714 1.63887
1.15571 1.21789 1.51831
3.60301 2.32636 2.83513
6.54276 2.49701 0.981528
6.66049 7.21424 7.04041
3.37782 0.978856 0.600336
2.06977 2.64476 3.14905
2.0207 0.997593 1.78935
5.88666 4.62605 3.50175
2.16042 0.940427 1.45681
3.72018 2.04509 1.07346
3.69413 3.16933 3.67199
3.59159 2.28565 2.49956
2.9004 1.16771 1.30812
0.43238 0.762047 1.10709
4.61304 2.9638 2.92485
2.1052 0.82178 0.607188
3.72562 4.65635 4.97273
5.63562 3.42185 3.06559
2.58307 3.01781 3.17917
2.42953 1.6785 2.44609
2.46664 2.45918 1.99409
3.71992 5.90655 5.86424
4.20167 5.05369 5.10048
4.61473 3.48643 3.5348
1.61969 0.678658 0.47658
3.69834 3.51768 4.29091
1.98418 1.50708 1.14735
0.463432 1.66273 2.77724
4.51377 4.99985 3.90872
1.71528 3.56657 3.93295
1.67081 1.49252 1.91754
3.87097 2.91569 3.45413
2.79955 3.98038 3.55191
2.86406 4.04988 4.88044
2.79509 6.39725 7.78539
2.80693 1.28949 1.77878
4.01849 3.77884 4.72751
4.44067 1.28848 0.679034
0.828007 0.605444 0.90877
1.62949 1.44326 1.88493
2.40198 1.65404 2.69462
5.44846 5.97183 6.72871
4.06524 1.61256 2.07328
1.92865 0.673454 0.864794
3.31092 2.04775 1.33466
1.92743 1.13387 1.38017
4.93481 2.93143 2.72882
3.11161 1.94166 1.57404
4.48616 3.38003 4.08313
3.60376 3.23868 3.39237
1.22309 1.55858 2.2283
2.32768 1.05702 2.17752
5.97225 4.42588 3.37663
2.32562 2.71216 3.37662
2.64675 1.83437 1.36506
1.57534 2.64972 4.58319
4.44057 1.98284 1.95398
2.33137 1.29359 1.438
3.4955 3.64768 4.26815
2.46261 2.22416 2.87354
4.93625 5.80331 7.21265
3.7273 1.81185 1.63998
4.14616 4.80765 7.34231
10.8782 10.0638 9.9527
0.508711 0.131888 0.741465
2.64267 2.89141 4.52123
2.1603 3.90007 5.57641
2.74473 2.71747 3.39904
4.04341 2.81668 3.09204
4.15065 4.92029 5.39843
2.34731 1.51042 1.85339
1.76045 1.89681 2.2648
5.54016 7.0163 9.03442
4.56684 2.58284 2.77881
4.42392 5.38775 5.77057
2.5096 4.92941 9.15491
5.61701 2.17502 0.791811
4.13161 3.55316 3.2621
1.87288 1.6005 3.11924
3.63769 5.64302 7.4548
3.68453 5.30768 5.5317
4.29368 5.44347 8.17733
2.41303 1.66196 2.64045
1.16028 2.06133 2.39092
2.87888 1.77077 1.4723
2.69747 3.78453 6.90038
4.80566 3.38301 2.97818
2.22376 3.31762 4.62185
3.08142 5.07752 10.7234
5.15287 4.19458 3.34913
4.38022 3.48061 5.80959
2.62894 2.481 2.00598
5.84829 5.08754 4.91108
2.91488 4.33756 4.60617
3.54491 3.69625 5.74102
0.410711 1.13515 1.37466
0.738649 1.39601 2.00601
4.16342 6.59196 8.17949
3.33155 5.16465 7.68789
4.17734 4.60473 9.10281
6.32311 7.68035 6.95768
3.33251 4.21775 7.57229
5.49803 4.30185 3.25215
1.74702 2.86022 5.74339
5.04712 4.62131 5.41345
5.50495 6.39892 8.81762
1.58846 1.35321 0.510473
0.856176 3.17315 6.97687
8.84793 7.57846 6.42573
4.07945 6.02307 9.16096
2.00379 4.3612 7.09366
4.79509 4.69615 6.56849
3.60635 4.27032 4.96809
2.42924 5.11217 7.59465
2.32703 1.92645 3.26843
3.13223 6.44807 9.61987
2.26705 1.04537 1.40751
1.75642 0.982056 1.54025
4.20498 4.31819 6.32971
2.44445 2.01507 2.00227
2.72734 5.86551 11.571
6.60969 4.24695 2.7457
3.71884 4.39625 6.57343
1.20257 3.83263 7.72523
7.28489 5.3311 4.76896
4.96075 5.73286 6.9773
1.70472 2.1391 3.87507
4.10721 4.79205 7.78933
1.88298 4.29943 7.98868
1.3743 1.05043 3.64271
4.54699 6.4454 7.85532
1.53073 2.43706 3.7891
0.931698 1.84553 2.78352
3.1781 3.54228 5.43622
2.15112 5.01979 7.40062
2.65836 2.83472 4.79945
3.53315 5.24452 9.48416
2.77284 2.54343 2.32236
2.71928 3.91198 5.26203
4.91777 5.78476 9.7708
3.25079 4.01686 4.27929
0.954125 2.08832 2.62195
2.53881 4.22435 8.09345
3.81974 5.95879 6.3594
2.88954 4.15177 5.73382
1.86328 2.98221 5.63562
0.903203 2.79641 8.90876
3.11182 3.37102 5.26806
2.93102 4.11953 5.44684
3.59936 5.41578 7.62528
0.671629 1.42544 2.30293
0.954074 1.74449 4.01252
2.59017 2.15462 3.72718
2.41314 3.27931 4.61732
0.743621 2.03286 3.49056
3.44982 3.84357 7.43927
3.16061 3.49483 5.13921
1.31761 2.68732 5.31148
2.83181 2.80913 3.71798
0.428821 0.802616 3.19692
1.57069 1.86326 1.5459
1.88992 5.55731 12.8179
3.74184 3.99194 3.77876
1.00358 1.44753 3.88017
2.78019 1.78147 4.86647
5.0963 4.30806 3.30413
0.974284 2.97617 8.79969
5.85795 5.87361 4.8676
1.69281 2.53945 6.59776
4.18413 9.91243 16.0602
2.65256 1.25366 2.07274
3.00041 4.51551 2.74166
3.01041 5.58428 6.05052
0.884325 2.45282 3.48712
2.4435 5.6232 11.1874
2.54744 2.73686 2.61187
2.21694 5.48077 9.9148
0.849707 1.26367 3.46749
1.916 1.0516 2.03568
1.95885 4.12621 7.02761
2.30326 2.61633 4.51146
3.72796 7.06365 13.2184
3.41446 2.56498 3.12466
0.526852 0.816489 2.65623
3.26156 4.15749 7.92862
2.26608 3.93766 9.2986
4.91862 3.94007 6.10313
3.12541 4.06713 3.88641
1.11046 4.29008 8.25168
2.87138 4.36459 8.00042
3.42167 2.42709 2.31246
2.25614 4.23528 9.65375
3.18181 3.5518 5.18169
1.0593 4.02532 7.21102
2.36963 0.855672 0.79264
1.51757 2.48299 5.02053
1.60079 3.57846 6.08045
3.13657 3.96547 4.59616
2.04216 2.89305 7.13405
4.69853 6.13548 7.4031
1.60015 3.52036 6.43109
1.20303 1.8315 5.36846
1.5729 1.8047 3.12784
2.91638 3.82368 5.17632
1.29288 1.10135 1.22814
2.24659 3.94564 6.86653
4.218 6.90602 12.8351
3.50184 3.66315 7.6699
1.00013 1.03911 1.48095
1.7561 4.55393 6.87382
2.32353 3.23879 6.491
2.35313 2.82542 4.10009
1.17553 1.68653 5.22745
2.19676 4.07203 9.39131
3.52469 4.44081 11.0794
4.52995 7.64159 8.72795
1.87264 3.26759 8.90901
4.57093 8.74739 17.8117
2.67201 5.03211 4.74123
0.87958 4.45901 13.745
7.39992 13.6114 22.5922
5.23817 5.46969 5.63402
1.75898 3.6375 8.30546
1.22748 4.39927 8.8444
1.90403 2.44121 3.93247
1.44425 1.8793 3.48107
1.53816 3.49989 9.54114
2.7082 2.88114 4.64747
1.36077 1.30811 2.67759
1.68267 3.28244 6.279
3.03771 4.48643 11.1972
3.6776 2.88581 1.60851
1.70584 3.90388 8.51624
1.35345 1.81942 6.68721
1.87491 2.59466 6.34337
4.97047 4.9736 2.14479
5.13427 12.3441 25.1456
2.30606 2.68337 2.07066
2.2683 7.51961 19.0862
2.97918 4.32765 6.94397
0.989761 2.02254 8.66082
4.42469 8.29219 16.4968
2.70385 2.89455 4.32133
1.00966 2.50124 7.55415
3.78508 10.8829 22.4202
5.66602 4.56439 2.79278
2.12399 3.69985 7.71931
5.39028 9.08224 18.752
2.911 4.80432 5.3268
2.95826 9.33271 12.3615
0.990283 6.88151 21.8447
6.16743 5.33964 7.60449
1.56995 2.88074 4.52036
2.85741 7.78959 15.7889
1.88301 6.22584 22.1347
5.5685 6.48577 11.0009
1.23865 1.91774 9.48393
3.54294 4.40953 5.96682
2.79759 7.39259 8.51108
2.24539 8.32912 19.7352
2.2969 2.93227 7.69179
3.75144 4.37904 8.72839
1.43082 3.81008 7.43217
2.73095 2.67013 6.91567
5.6205 13.4923 24.4767
2.39256 1.86138 4.14899
2.63527 4.10382 9.65721
2.20972 4.58992 14.6551
2.81413 5.79238 9.12136
4.97857 7.44684 13.0268
1.01581 3.43131 7.1054
1.48752 4.50095 9.74593
0.901859 0.904587 3.18417
1.45815 1.83294 3.19734
1.69157 2.79673 9.92906
2.61105 4.70369 4.95189
1.38749 3.26253 8.63724
2.77357 2.50929 4.2263
2.19753 2.887 4.85388
2.12298 6.58656 20.8906
2.53586 3.22455 7.5915
2.61879 3.12229 6.32666
2.45882 6.95667 21.5038
7.10992 12.8602 14.9023
0.29853 0.96671 6.96753
3.13197 7.62374 15.19
4.17064 12.1626 22.7035
4.07937 10.4667 25.4206
3.94793 4.07642 8.64342
2.30436 5.07939 13.3671
3.74966 4.71096 5.62373
1.99266 6.65955 17.8284
4.28788 7.11628 11.083
2.10226 5.20034 16.8253
2.85154 5.65519 10.0533
1.90708 2.98785 9.41477
3.38852 4.81939 5.99923
2.1414 5.54689 7.74452
1.21668 4.05055 8.64263
0.557706 3.38936 17.0596
3.04932 4.30925 6.10972
1.18416 0.778777 3.49732
1.51961 4.34989 14.7301
4.61802 6.94615 8.01627
1.67449 3.04145 5.00217
0.943246 3.0053 7.57034
0.876438 6.24007 19.0796
3.34197 1.58449 7.65325
6.75526 12.2919 17.8421
2.90192 6.31228 12.9762
5.94004 11.0103 14.0568
1.40202 8.35762 25.509
1.99786 1.43835 2.26012
0.744992 2.28046 8.6717
3.32428 10.0968 33.9337
3.00006 3.84435 16.2498
5.2053 13.0889 23.764
2.54372 1.61622 2.7789
2.92728 7.06289 17.9912
1.05251 2.96863 16.3068
2.19859 3.44785 17.8059
7.81636 18.6113 27.5432
0.979188 1.05695 7.48959
1.58613 5.4921 15.5227
3.58041 4.48495 11.2511
5.13282 13.1802 12.8245
0.646881 5.26965 11.7138
1.49741 1.58807 4.96427
0.876143 4.96711 16.1243
3.01015 4.72407 5.71529
1.40878 5.6704 9.79536
1.83413 4.65806 9.17805
1.94654 3.84011 12.622
3.15443 9.85687 22.8107
3.83241 8.93286 21.1218
2.10028 8.01137 17.5954
1.84405 6.68284 22.6701
5.73454 15.4876 25.9747
1.64473 0.248541 2.01418
0.215561 2.15663 13.0395
4.61142 11.2101 22.3609
4.48498 7.11709 15.1502
1.51366 4.50013 10.5907
2.4187 4.76314 12.9973
1.87328 2.13963 6.55746
0.958238 4.03165 17.8613
2.28677 2.78871 5.38063
2.63941 10.2864 19.6065
1.67547 4.36152 20.3142
4.20772 9.776 22.6545
5.42573 11.9417 13.3462
1.28166 7.90646 21.296
2.53607 1.19608 3.69605
2.48936 6.1634 13.8985
2.52223 4.81415 11.4505
1.7745 3.30369 6.43157
1.6173 4.43564 8.83765
2.36796 5.92753 15.7431
0.96322 1.28963 7.66601
3.14758 6.86708 15.9405
1.91971 4.10255 6.22621
0.974905 5.25501 19.0489
3.93786 3.87945 6.79443
3.26266 5.48125 8.15244
1.40063 8.24752 23.0288
1.91258 1.81574 12.0112
3.07832 6.56634 9.68868
1.28776 1.75154 8.10413
2.9803 4.92658 11.1807
1.85619 6.1708 15.8883
3.74461 7.46068 14.9419
1.36323 4.16083 17.9542
1.47245 1.86656 6.49928
2.1743 5.75853 14.5559
3.85173 11.1576 18.6541
0.809423 0.878943 6.51411
1.25193 3.144 11.9996
2.79918 8.27832 10.0937
0.374238 2.17494 9.61148
0.755213 4.58541 17.6492
2.95544 8.1198 22.0567
2.4069 0.877422 7.56581
3.38434 7.67542 7.83523
1.65031 4.62531 12.7938
0.764189 4.285 8.22471
0.499512 3.58573 22.6417
4.98763 6.60338 21.7096
8.80137 19.903 41.6519
3.93865 6.90224 11.35
2.44096 7.86593 22.9849
1.72981 5.19138 17.7666
2.43565 5.02539 10.9329
0.792026 3.79723 12.9806
3.55505 8.22236 14.2493
1.34734 1.26154 4.22881
0.301352 0.502729 7.38212
2.57887 10.297 18.3096
1.52213 2.37975 5.09476
1.37909 5.92794 30.2143
6.01145 12.2569 22.198
1.6965 1.91649 1.60057
1.02194 4.01813 13.4826
1.82116 2.92375 13.2779
2.67168 7.86732 11.508
2.56062 8.97292 38.301
4.49735 8.62507 12.0121
1.99459 7.10417 22.6408
1.93285 3.91458 8.00356
2.99009 10.4717 30.0582
2.80115 4.74279 11.0365
4.50451 14.0899 16.6558
1.58515 13.5356 40.2826
3.52383 4.26899 3.78457
2.20336 16.3945 39.9425
3.20539 6.16624 13.4183
0.992441 8.48824 33.8683
4.7012 7.73313 19.5999
2.70477 5.58434 15.7693
2.62873 4.28384 14.3226
2.65345 3.00143 4.14773
0.375816 2.4797 8.60734
1.55283 2.03239 2.22864
2.07317 15.4702 49.2712
3.69831 1.28576 8.24159
3.6365 6.189 14.2306
2.43506 5.53624 9.92959
1.91864 6.8487 17.8373
2.40441 7.5118 31.8201
4.48586 9.36669 11.8195
1.24028 7.49665 23.0617
2.72244 4.40699 16.4468
2.26223 1.94004 4.3618
1.61104 4.64242 9.46062
1.20129 2.08277 6.51609
2.20977 5.36161 11.0021
1.05873 5.33271 26.8553
3.92649 6.91028 6.95063
2.27979 12.6293 38.9961
2.36803 2.39099 16.7141
3.87045 9.18611 31.612
4.71422 10.2379 26.2587
2.70905 3.67898 13.7895
3.66199 7.27656 12.8298
2.10218 3.54521 10.3274
1.87074 4.39533 15.9543
2.6014 4.19077 6.71002
1.26911 6.30101 21.527
2.34384 1.59322 5.35927
1.70094 7.03362 16.1028
1.88822 2.19333 5.34817
0.943324 7.69355 52.071
8.32325 16.5629 23.2248
2.17862 6.11204 23.845
2.85963 7.42599 16.2252
1.60895 2.22591 11.3552
3.27144 8.7777 20.8543
3.9437 8.90361 16.3348
0.581951 3.19427 12.8267
2.56444 4.04787 9.60408
1.08072 3.03549 19.0513
3.46365 6.51976 9.44317
0.812605 1.42953 11.1199
2.87245 7.85772 21.5931
3.21726 6.44733 9.22922
0.374866 2.05291 5.00674
0.754751 4.86181 21.759
4.85805 12.6716 31.3477
1.80542 6.82319 19.0134
0.835231 5.61693 30.1442
3.76907 5.68212 27.5466
7.09726 15.7588 21.1593
0.349707 1.63681 9.16659
2.83876 10.5347 35.1942
3.6725 5.6327 10.1018
2.5762 7.76763 15.1074
1.3844 5.52565 24.3278
1.7789 1.2201 6.21978
2.98014 7.13507 13.4521
1.21508 4.74031 22.3754
1.31928 1.64157 4.58997
0.883806 4.98455 33.9376
4.05354 6.10185 5.61918
2.44574 11.7987 20.8515
1.76324 7.99471 27.7754
1.81446 1.75185 3.73564
1.40097 6.62454 26.1481
3.90822 16.6295 42.3186
2.43325 3.50815 19.0263
2.9441 5.94365 8.42209
1.46527 6.41026 25.9995
1.57244 4.26066 26.3243
3.87315 6.91469 22.1538
4.13482 11.081 20.5885
2.20526 3.59077 7.3887
0.779499 1.96765 6.18999
2.90809 9.89517 21.7619
1.06818 2.53275 10.4658
0.766842 3.27678 11.3249
1.43422 3.80773 11.8227
3.11923 7.85702 15.1359
1.95282 6.42952 19.669
0.489158 3.39273 24.7782
2.80752 8.77938 29.8699
3.01718 11.3415 28.0002
1.83979 5.44915 23.0958
3.72015 9.36284 22.205
1.051 2.5842 5.65726
0.414945 1.9092 14.0703
2.17187 4.99033 10.259
1.63031 6.31318 21.0254
2.49863 6.72993 18.8186
0.832612 0.874376 7.32381
0.716884 5.67401 25.7459
2.82685 6.52602 14.2378
1.95526 8.44509 27.4552
2.71947 2.47152 12.7959
2.09037 6.72239 13.8403
1.15423 3.77201 13.5374
1.86234 3.80784 10.0122
2.12258 6.38864 38.143
6.22029 13.3442 27.7814
1.75557 8.80472 21.7761
1.56338 4.12081 17.9301
2.59051 5.72371 12.9296
0.723023 4.51255 10.9402
1.6747 5.29895 20.6752
2.29123 2.92704 7.84637
1.46145 5.23143 25.891
3.39417 10.7781 26.3843
2.5993 4.85031 11.2512
1.09895 2.13612 17.5269
4.49088 10.9971 22.131
2.30949 8.09121 25.0214
2.07595 4.64154 18.712
2.03723 6.14902 16.2788
1.7054 9.00374 26.9897
2.85874 8.61091 39.3657
4.01505 7.17002 8.53421
0.713355 5.23902 33.6641
4.78738 12.177 15.4566
0.911183 4.39425 21.3197
2.0749 3.5208 12.0554
2.19552 5.12078 23.9576
3.11648 4.92401 4.97831
1.21026 6.7542 24.2405
3.08683 9.2564 26.9331
3.98327 8.78325 13.4624
1.71187 12.7853 46.8983
2.13648 3.72356 15.7746
2.71884 11.9743 48.5304
3.69822 10.2243 20.6022
2.71031 6.98453 18.734
1.3206 6.74747 10.266
0.691127 6.79226 30.3665
1.54106 7.48416 49.2405
6.52671 14.6101 38.6632
2.78728 3.39855 10.0426
1.79809 7.96446 16.8164
1.92187 6.01761 23.6576
1.58975 3.3945 9.93642
0.959161 4.20968 22.0864
1.94149 5.1458 8.4208
1.06248 2.40322 4.27826
0.773503 2.14838 8.15074
1.0777 3.86414 14.2933
0.625223 4.92565 19.9689
0.894224 2.66988 13.2981
2.63914 9.67996 36.032
2.24963 5.55433 33.6435
3.17389 8.01568 21.8444
1.75274 4.07746 9.73056
2.39418 19.1866 45.3805
2.22647 0.549075 5.95879
0.910472 7.14877 33.9153
2.73029 1.90534 9.59181
1.718 8.31842 32.0688
2.55264 1.77361 16.7117
3.41568 12.4877 29.1943
3.30207 13.7889 25.8432
1.2825 3.25371 18.6828
2.31898 3.52947 10.3233
0.809724 2.84437 12.8865
1.05786 3.06052 9.12373
0.780037 1.90382 4.28419
1.05824 7.08734 39.4472
3.04816 8.69384 54.223
4.97517 12.1742 14.6863
2.82938 13.9059 44.3141
2.66993 10.5745 36.7376
2.56404 1.70977 6.96504
2.00363 9.17993 15.4396
0.635161 2.89309 21.5275
2.76648 12.1357 14.6743
0.460393 4.54816 18.7185
1.69175 3.7762 12.6546
1.05542 3.19947 34.7541
4.59146 6.8229 8.87035
1.96934 3.45505 7.67818
2.6188 11.4227 30.7539
1.45367 4.18344 7.8601
0.548878 6.94661 44.1547
2.77838 6.49298 9.58968
1.4086 13.7684 46.2678
3.06368 1.49835 1.44567
0.43495 2.97521 23.4561
1.79113 9.27032 34.4531
3.23527 11.5651 42.6021
3.825 8.59703 21.4296
3.17359 9.2843 18.0768
1.44435 5.99102 21.2853
2.06415 7.07455 20.7178
0.96624 2.25413 29.6832
3.92666 5.62295 31.5255
5.09014 11.4053 19.364
2.34996 7.59741 41.4865
4.87786 10.7542 5.8222
1.17948 11.2304 45.4559
2.1504 5.64316 29.8294
1.93256 9.70739 32.8044
2.89104 4.90065 17.4465
1.72437 5.0226 15.951
0.615622 1.83726 3.42155
0.58464 3.21137 18.5082
1.21326 4.61969 13.0653
1.13622 6.41022 30.3995
2.48412 8.02193 28.1129
3.74618 10.7956 41.1356
2.72514 4.95483 16.9775
2.40168 7.07977 15.5876
1.30864 6.48339 16.8699
1.8225 11.3225 27.4275
1.83619 9.23798 34.3008
2.15949 2.0755 19.0813
2.12359 13.5567 35.572
1.91926 5.18199 29.754
3.19132 3.84629 6.17994
0.943173 3.81548 16.7812
2.38513 5.14071 11.3704
0.734523 2.87009 8.64413
1.03812 5.40475 14.5163
1.17799 9.79234 57.6648
4.46067 11.3584 46.2613
3.20458 4.59022 6.34074
1.2764 5.97667 11.453
0.418008 4.85741 41.7283
4.4094 15.6682 49.6993
3.91678 3.76612 12.3596
1.15595 7.8988 48.9937
6.00205 13.041 49.9892
6.08139 16.3824 16.578
2.44432 14.4876 40.9439
2.03441 5.08183 31.9977
2.24349 6.79348 33.2612
2.94813 10.2112 19.9229
1.43262 13.4481 63.5927
4.44297 4.73444 16.4795
2.73045 10.9545 36.1476
2.0103 5.80291 18.097
1.06828 6.61894 17.8441
1.20841 11.3158 42.5644
2.98726 2.6206 15.9343
2.08037 10.7271 44.9235
2.55285 6.67398 19.4912
1.73795 7.84989 26.678
2.51923 6.8705 8.35706
1.1024 10.8661 32.6635
2.19265 2.39181 9.88773
1.26548 5.73631 32.0093
2.27624 2.52348 10.9279
1.8473 5.89782 15.228
1.17889 2.34441 5.15039
0.577863 4.55812 7.347
0.385717 5.91509 36.6014
3.19611 13.2463 52.8365
3.46533 10.6553 23.5848
1.37556 7.30086 37.0307
3.58969 3.07024 3.13657
0.861831 6.13559 31.3327
3.51403 6.90935 19.6869
1.19878 4.02398 27.4296
4.01019 11.463 17.3334
0.575189 8.21395 26.6957
1.61209 1.69468 16.7508
1.7861 5.76201 17.0876
1.21863 2.73081 17.6477
1.21205 7.38041 20.5505
1.69673 6.45588 17.8524
1.61363 6.01549 36.7554
2.95873 9.34579 36.624
3.74234 7.08724 17.2893
1.46788 11.258 43.3759
3.00127 6.77577 15.9556
0.644422 4.20696 17.4369
1.22358 2.29554 10.6504
0.629127 2.33365 22.1503
2.68132 9.47524 19.929
1.39022 3.62245 21.2896
1.76225 4.10564 22.7246
1.61531 5.7246 11.6468
1.36181 3.74165 9.99872
0.920088 1.88847 12.9867
0.790441 6.7994 27.0875
2.29827 5.2522 19.2469
2.63616 14.1665 55.9561
4.84606 8.81028 21.3739
1.22402 11.7306 45.6966
4.08745 7.65171 23.6516
2.05919 10.7298 78.1379
6.78202 20.3637 43.7938
2.59519 10.9186 24.8367
1.0443 8.70729 59.5299
3.00336 7.90375 15.1441
1.2037 4.47084 19.2763
1.23591 4.62097 19.9803
1.73786 3.82168 10.4771
0.64088 9.42995 28.1645
2.15182 1.24283 22.7739
3.08799 6.64061 27.0382
2.62963 16.6397 33.6673
1.94134 12.3925 48.5192
2.86246 4.30981 35.8654
3.11589 9.99859 47.5824
4.21277 7.03913 24.9595
2.76428 13.3497 29.9652
1.94755 8.81199 28.5007
2.48931 14.145 48.1025
2.38699 6.8799 31.6546
2.34963 5.11911 35.1801
3.71653 4.19632 19.5941
4.16383 33.6201 107.008
5.5007 9.05885 46.4045
3.77589 6.52241 14.7714
1.54369 9.76994 44.8117
2.97128 14.297 41.0486
2.32147 7.03972 18.7856
1.45167 5.37798 37.4718
2.97797 3.59612 31.188
3.63857 22.6544 103.503
7.29194 9.21964 23.6989
3.35116 6.77314 6.35621
1.91621 16.4852 48.5771
2.79492 5.53273 26.2284
2.84088 13.2596 37.8716
2.54662 6.28529 22.6852
2.88035 15.3615 34.9408
0.769394 5.47638 67.0805
4.32235 11.6426 30.9328
1.3249 1.10353 12.8614
1.09495 11.2695 44.2832
4.19773 8.49501 33.2004
2.27493 11.7248 54.3158
3.98058 9.55664 33.3745
1.84691 3.36295 29.5176
1.94195 4.2756 9.87216
0.707625 3.50537 21.3948
2.51264 15.1519 27.4128
3.11475 20.5166 52.3305
2.32934 6.62599 39.3048
2.58372 9.33681 48.8233
3.97721 4.76086 34.3269
2.63386 5.85755 20.4828
2.99981 14.0422 30.6998
1.81047 7.9585 25.0462
1.94168 3.29953 12.6222
1.18853 11.9807 46.1255
4.1514 11.1093 40.8856
2.89366 9.05431 27.5861
1.75524 0.769296 17.602
2.6028 15.0064 41.4099
2.31919 4.61855 48.8564
4.24836 23.5951 51.6021
2.32385 7.05825 35.5649
3.70796 12.3975 45.1627
2.011 2.4489 6.78018
1.22906 9.99592 45.6209
2.49924 5.81538 31.8161
2.36715 3.85392 11.9006
1.21557 9.81529 8.61996
0.620333 4.59753 25.0359
2.05301 9.15685 35.8345
1.30187 3.3586 8.45047
1.1214 2.73322 7.20753
0.482605 4.50593 35.7345
2.45287 10.4115 50.3946
2.49003 12.4963 56.2379
2.80871 8.76063 9.74121
0.534597 7.51686 64.3932
4.43523 6.14039 49.6427
5.69732 36.1227 65.6651
2.4416 12.0404 34.4923
2.14899 3.41631 15.4003
0.987703 5.7864 34.5074
2.95236 5.08059 43.0198
4.14217 10.8133 31.8136
1.91701 11.2361 36.3808
1.69688 3.52708 21.0441
2.16747 6.50192 32.7698
2.93745 9.89544 31.9699
2.76698 12.7898 68.9184
3.99633 11.6233 40.1513
2.615 12.4783 44.7128
3.65307 7.40582 29.5194
1.54442 7.48789 10.7971
1.0132 2.8513 11.8226
0.747634 6.43332 38.9594
2.00931 2.45759 23.1696
1.55659 11.3464 52.2169
4.4686 15.8956 24.1337
0.879376 4.1719 36.0307
2.7135 7.78836 46.475
2.55596 8.5537 17.2506
1.05922 4.88046 23.6443
2.30802 14.8576 20.352
0.779783 5.04082 66.9773
4.53332 10.9649 15.31
0.847515 15.404 57.7551
3.83136 6.6205 21.9667
1.31077 2.53512 19.5424
1.15602 4.13492 1.64069
0.231632 6.41567 24.6242
1.65571 12.7553 37.3143
2.71966 6.00701 58.4333
4.95183 9.65639 49.1428
3.88639 10.4734 41.7025
3.00883 11.243 22.3554
1.68349 3.5715 24.0843
1.68283 11.6353 34.8802
2.95173 8.91792 55.2606
4.30882 8.65963 29.7654
2.47097 11.7604 29.9016
2.04106 1.86581 18.812
2.45183 4.22887 13.8071
1.8668 14.4343 51.4047
2.56452 5.95418 10.6732
0.806423 3.57137 14.014
1.18398 11.1527 47.4038
2.95168 1.80233 2.39743
0.182331 6.63607 40.8787
3.07644 3.8492 21.2762
1.93324 2.64872 36.0587
3.25329 13.8831 23.5448
1.22144 4.0501 21.3331
1.35154 4.49081 13.4045
1.16035 9.72053 39.2667
1.76657 4.58295 21.6934
1.35248 5.6606 19.2878
1.73334 6.35363 49.6937
3.16268 11.3885 18.1183
1.4455 9.51736 43.2586
2.60175 4.13866 28.9333
2.58279 4.8918 32.8556
2.20885 6.21229 10.4438
0.854994 0.509791 4.54738
0.547446 2.11893 15.0039
1.69657 5.46697 13.3053
0.53929 5.41601 25.5386
1.13769 4.85914 38.3746
2.46913 7.15212 61.6939
5.34546 8.83284 55.4788
4.77187 28.4742 53.005
3.32933 5.33076 4.88292
0.720145 5.17461 38.5154
3.55108 17.9849 82.3908
5.3959 15.6508 13.2881
0.400714 10.4469 75.5903
5.51997 16.6501 22.0267
0.694286 6.80189 88.8298
4.41827 10.5763 9.10141
0.850376 6.6647 48.4464
3.48715 13.946 37.6908
1.92629 5.17733 18.6868
1.17425 2.82228 11.9764
0.791369 9.14374 25.5834
1.72068 2.49076 30.1926
1.4766 5.1475 10.1591
1.14713 7.85009 72.7782
4.51112 15.4223 24.3626
1.90123 2.49856 29.9508
2.16563 10.9373 26.848
1.67333 9.42273 86.2316
6.14268 11.3472 25.4269
1.6142 8.26126 41.4678
2.31412 13.2932 36.3701
3.28888 13.0294 42.7969
2.57875 16.9841 24.304
1.80617 14.8905 44.8616
3.15125 4.17246 22.7762
1.67179 10.5685 48.2018
3.1422 3.83629 23.3845
1.92354 5.7391 28.2559
2.78277 10.574 20.0303
0.860519 3.99672 15.7205
0.653508 3.34378 24.8758
1.13139 4.21991 25.6255
1.44535 8.76522 31.7701
2.73131 7.75984 57.0401
3.26559 7.09381 18.0991
1.94738 19.6886 72.442
3.64296 15.4479 62.1194
4.85188 11.8848 33.2893
1.94227 6.8795 32.7678
2.26753 7.49341 29.3734
1.75614 6.14461 14.1685
0.715796 11.3 40.2155
2.70278 11.4629 53.4603
3.26639 10.2479 43.0347
2.05854 7.38554 29.8222
1.94078 10.9807 31.0319
2.38994 8.03074 40.1755
2.23669 12.9958 42.7029
3.20246 11.8863 54.7015
3.47807 1.88359 16.379
1.44204 13.6703 47.2411
3.12461 10.7051 34.332
1.85714 8.59696 88.4918
6.32902 20.5618 31.7122
1.98725 9.54511 32.7595
2.18358 4.62189 44.3086
3.89287 8.59703 21.3899
1.17964 7.4016 15.0082
0.920122 12.2674 85.7058
5.41962 20.4122 67.9058
5.72265 10.8521 38.6742
2.92998 15.0061 31.171
1.34986 1.30251 37.3006
2.63702 2.85871 32.7281
2.09755 8.86884 11.2118
1.16505 8.82838 5.88126
0.428873 11.004 49.4159
2.94044 3.52223 9.50736
0.850011 0.4911 22.1258
2.03795 10.1625 36.8971
1.80125 8.70003 4.44073
0.249359 4.6955 36.935
2.53954 9.8813 34.4463
2.09496 6.25566 48.746
3.5491 10.9784 15.9366
0.461506 6.82406 25.5709
1.4111 2.28832 18.5816
1.56573 5.75296 54.7092
3.19132 9.39713 36.5204
2.20786 15.9521 21.5984
1.96625 7.87308 23.3586
1.8584 13.8747 70.8839
5.07457 4.65602 24.6698
1.93197 13.7331 44.7263
2.89832 2.83756 7.88857
0.97622 3.12607 23.9725
2.31907 15.8112 79.6073
3.72577 13.4578 58.6264
4.21625 5.40837 13.5032
0.617167 16.6981 47.2019
3.33753 5.93336 28.1869
2.02402 2.57992 12.7096
1.01029 8.55096 42.9198
3.5495 6.37242 45.4437
3.47599 11.6049 18.2279
0.883697 3.51759 8.35634
0.896991 1.51243 13.0274
1.07301 4.52963 39.5857
3.34951 5.14617 14.0802
0.954082 10.497 92.0322
5.9007 20.9713 32.4194
2.66443 4.14427 19.604
1.55765 13.6981 45.3246
1.93106 6.05782 24.3869
1.84776 10.7667 34.1839
3.02974 9.24039 33.7435
1.83847 3.24455 25.6645
1.10533 7.64981 32.7563
2.53419 6.22205 17.2788
1.36989 0 0