# pn-170911/RbIIA-26-AMC2-1280-1959.psd
# Power spectrum* (dif=0,1,2) (really just |FT|^2)
# NOTE: only the first half! (symmetric)
# weeks: 1280-1959
# 113 clock-days, 51 excluded
# PSD: 1441
3567.8 0.121688 0.00644903
109028 2.23944 0.00288373
594830 13.1974 0.00314441
96346.5 3.28166 0.00296078
88609.9 6.45441 0.00311826
35155.9 3.15424 0.00315493
25837.4 3.10735 0.00348717
18889.9 3.28437 0.00332637
16808.4 3.8124 0.00365089
12195.4 3.34587 0.00470362
10354.9 3.47693 0.00498066
7540.48 3.72566 0.00431314
6721.17 3.89323 0.0054981
5595.07 3.27675 0.00466418
4362.68 3.07846 0.00625743
3951.56 3.22827 0.00707133
3433.09 3.18407 0.00648875
2973.22 3.14716 0.00803101
2796.71 3.24525 0.0086985
2939.91 3.68949 0.0087047
2693.84 3.68063 0.00904938
2011.12 3.34512 0.00908464
1942.83 3.25544 0.0102591
2155.6 3.95553 0.0131815
1628.58 3.26524 0.0119905
1628.05 3.56099 0.0143522
1484.87 3.26503 0.0140651
1216.8 3.63975 0.0144366
1102.76 2.64758 0.0121272
1254.74 3.65124 0.0188659
1092.35 3.13485 0.0174648
776.579 2.98545 0.0155603
947.429 2.91727 0.0175146
730.655 2.86938 0.0178412
895.285 3.58419 0.0214888
692.679 3.39614 0.0205597
644.536 2.79149 0.0210158
750.28 3.28474 0.0260859
607.082 2.77451 0.0228621
611.869 3.30824 0.0289459
579.173 3.05448 0.026317
708.92 3.86827 0.033409
476.866 3.581 0.0350044
503.687 3.12594 0.0304425
543.16 4.07913 0.0401484
478.951 3.47408 0.0364886
532.676 3.38863 0.0386294
458.429 3.28848 0.0387158
461.267 3.62637 0.0426217
399.881 3.62177 0.0421624
335.962 2.84393 0.0404487
372.664 3.44335 0.0438117
330.914 3.36663 0.0450029
330.524 3.2285 0.0442297
340.499 3.21706 0.0477554
311.363 3.34233 0.053266
282.869 2.85705 0.0445141
260.967 2.89176 0.0449161
271.562 3.33745 0.0578227
245.173 2.7644 0.050806
273.211 3.31743 0.0579032
232.727 3.31621 0.0637836
231.949 3.05858 0.0582485
209.696 2.78748 0.0577004
245.803 3.70879 0.0803449
228.312 3.5468 0.0747266
220.166 3.5117 0.0787297
221.105 3.53558 0.0796347
215.447 3.2097 0.0734728
210.227 3.52835 0.0827809
184.169 3.22091 0.0797597
190.174 3.22346 0.0779191
186.153 3.33923 0.0839953
168.236 3.12033 0.0867085
152.579 2.97965 0.0830269
180.653 3.3652 0.0937187
181.818 4.10176 0.12176
177.834 3.58847 0.104594
144.669 2.85944 0.084121
135.729 2.66956 0.0810096
165.484 4.06019 0.135397
142.501 3.38294 0.10638
134.543 3.05829 0.103353
142.036 3.50019 0.120848
131.154 3.40098 0.114951
131.872 3.4611 0.124517
128.574 3.1909 0.119628
142.282 3.30176 0.119315
115.099 3.49507 0.129831
113.965 3.8739 0.152432
114.116 3.7887 0.149561
104.318 2.93756 0.118798
84.6774 2.757 0.113425
117.124 4.02239 0.16607
111.394 3.40625 0.144507
98.6834 3.39709 0.149469
104.394 3.45127 0.157721
102.814 3.12295 0.144011
83.1485 3.05907 0.139959
81.9864 3.19772 0.152141
99.7624 3.32893 0.163224
74.1654 2.67468 0.135223
81.9086 2.87305 0.146901
103.337 3.36821 0.175062
92.733 3.41157 0.180978
86.1163 3.31574 0.181774
104.072 3.47939 0.184817
85.6097 3.23017 0.174785
69.4332 2.50893 0.137366
58.3908 2.77466 0.165302
81.6958 3.45397 0.198241
74.0609 3.16725 0.183356
76.0372 3.17599 0.184546
72.761 3.72397 0.229501
73.1977 3.10184 0.193899
84.3582 3.61705 0.225043
59.5711 3.097 0.204531
70.9114 3.29124 0.223993
99.4183 4.77182 0.313872
61.4483 2.65064 0.184776
68.501 3.49477 0.243729
67.3523 3.36384 0.242104
64.7501 3.34414 0.242441
54.0384 2.97573 0.220847
68.7639 3.11054 0.227267
61.0456 3.39787 0.254987
69.4535 3.52147 0.276936
56.1325 3.13518 0.238825
51.8204 2.79663 0.222628
70.427 4.07645 0.321454
61.347 3.57369 0.294868
58.014 3.24257 0.265378
62.0108 3.83255 0.318699
59.1545 3.84944 0.328064
55.6999 3.36296 0.289049
51.8651 3.09758 0.263774
39.5581 2.7145 0.251656
51.4802 3.09197 0.27779
53.3423 3.23557 0.286986
54.0823 3.3662 0.309105
52.7069 3.58588 0.326019
50.2539 3.72766 0.344827
46.3229 3.40923 0.323765
41.0453 2.75438 0.26425
49.8872 3.8189 0.376318
45.5993 3.35246 0.350341
45.9491 3.48023 0.348287
52.3145 3.68686 0.385298
45.0472 3.86231 0.405914
45.7158 3.152 0.322835
56.5215 3.88311 0.42892
43.9488 3.46418 0.378313
41.2164 3.47452 0.392692
42.6613 3.50171 0.384599
39.6607 3.39256 0.387003
44.7341 3.94453 0.445286
41.2202 4.06825 0.471568
42.3011 3.47726 0.401574
37.0053 3.50267 0.409214
35.5367 3.07262 0.354581
41.0697 3.53387 0.42153
39.3292 3.40171 0.427291
38.1184 3.45087 0.425115
44.4621 4.52186 0.562195
35.2704 3.33403 0.422643
39.6154 3.73663 0.486893
34.3014 3.13501 0.402578
37.9165 3.52801 0.475625
31.8015 3.07795 0.402686
36.6456 3.48473 0.460012
34.5179 3.26514 0.460618
38.3927 3.83136 0.530736
34.724 4.056 0.560725
33.7505 3.66176 0.518291
35.05 3.67276 0.524939
40.6791 4.02372 0.587915
33.581 3.75969 0.553775
26.7179 3.24654 0.470009
30.323 3.83012 0.574958
33.7823 4.03166 0.621739
32.6082 4.01057 0.609801
29.5957 3.24396 0.500993
29.4725 3.64312 0.564909
32.8654 3.57015 0.550257
28.5449 3.0863 0.490238
27.2161 3.22944 0.540497
30.0288 3.49215 0.557271
29.8192 3.55687 0.589149
27.2298 3.40159 0.576513
23.3527 3.49895 0.597318
30.1147 3.94192 0.669506
24.4618 3.26097 0.558246
26.5421 3.19138 0.567846
23.6488 3.42551 0.618871
23.1745 3.16591 0.539738
27.5986 3.90257 0.696606
23.0514 3.20161 0.569764
25.2754 3.11576 0.566982
24.2843 3.36217 0.628972
23.6439 3.28218 0.610417
22.9282 3.31449 0.638134
21.9623 2.68891 0.501587
23.0651 3.42602 0.66008
24.7719 3.4517 0.69331
24.0122 3.30103 0.632694
23.2393 3.72738 0.726957
24.5536 3.68258 0.73774
21.8892 2.86913 0.580056
20.849 3.61283 0.751829
22.9862 3.39769 0.700196
22.8055 3.47118 0.719496
21.532 2.99641 0.64147
21.9992 3.7936 0.801278
19.4053 3.22129 0.669065
21.873 3.5647 0.763486
18.9005 3.12845 0.708232
22.1631 3.56143 0.77015
20.1172 3.40641 0.771566
20.1025 3.71769 0.804135
22.751 3.48406 0.796896
19.6549 3.67009 0.827281
19.4672 3.00741 0.690639
21.6166 3.79038 0.853347
19.6123 3.05216 0.700748
20.0864 3.90332 0.946292
21.186 3.47804 0.805703
17.0722 3.03918 0.72909
16.9781 3.42762 0.841467
17.0938 3.00348 0.736382
20.0803 3.61033 0.883784
20.0813 3.51274 0.871827
17.0056 3.3116 0.81634
16.5133 3.28419 0.802765
15.9822 3.0202 0.764533
17.9023 3.77083 0.967871
14.8131 2.83442 0.742935
15.1487 3.17763 0.835433
17.411 3.54335 0.917076
19.5428 3.84391 1.02201
20.0511 4.1625 1.08341
17.1846 3.29171 0.878878
14.9774 3.1355 0.854037
18.713 3.1236 0.833641
18.2227 3.38718 0.921375
14.4234 3.17535 0.898823
15.4599 3.16056 0.854697
18.0329 3.70873 1.04158
15.414 3.25532 0.918774
16.5731 3.43645 0.977103
15.8995 3.367 0.990244
15.5331 3.06427 0.900589
15.7648 3.5861 1.04358
16.9703 3.68545 1.11822
17.0021 3.48162 1.0526
16.966 3.75085 1.11167
14.6867 3.15565 0.961855
14.6092 3.15421 0.957116
16.0432 3.74984 1.15319
14.4279 3.3435 1.03221
16.3951 3.50052 1.11283
14.1729 3.7752 1.22221
14.193 3.42233 1.06457
14.6645 3.53629 1.10875
13.5962 3.49774 1.10673
13.4955 3.10129 1.03616
15.4866 3.28433 1.06155
12.376 3.09954 0.992517
14.7242 3.11899 1.01403
17.1373 4.39626 1.46141
12.0297 2.74328 0.909946
12.2845 3.46745 1.13954
11.5369 2.70657 0.950087
11.4179 3.75447 1.34378
15.447 3.53576 1.18465
13.1617 3.54552 1.21892
14.4537 3.767 1.34981
12.7363 3.39808 1.21591
13.7509 3.75303 1.28477
13.4795 3.43487 1.25918
12.1181 3.52683 1.24957
12.8964 3.65977 1.30886
13.4211 3.8318 1.41117
12.458 3.46193 1.27514
12.5273 3.78313 1.37409
10.1707 2.73472 1.02094
11.0819 3.02808 1.14473
12.6192 3.38428 1.27041
11.3361 2.88181 1.11329
12.5746 3.10209 1.14927
11.204 3.16829 1.28806
10.6935 3.17408 1.24157
12.3804 3.36553 1.30605
10.5145 3.09569 1.22861
11.6021 3.22235 1.25925
11.7166 3.33102 1.29493
9.64201 2.86319 1.18759
11.5899 3.39035 1.32767
13.2017 4.30041 1.7343
11.8188 3.79724 1.52451
12.545 4.10428 1.69712
10.401 3.39382 1.41739
12.5425 3.51127 1.38781
11.1273 4.03972 1.80181
10.961 3.40448 1.44403
12.6875 3.88934 1.59909
9.72539 3.57638 1.56123
13.0231 3.74368 1.55162
9.91045 3.04105 1.32926
11.2152 3.94966 1.74466
11.1954 3.2237 1.4225
10.4696 3.6995 1.55562
10.5189 3.24867 1.3979
10.4587 3.60614 1.64737
12.3576 3.77039 1.67653
8.24335 3.20609 1.45297
10.2921 3.70624 1.64154
9.77778 3.55932 1.66074
9.54959 3.18313 1.40826
7.50215 2.90003 1.36551
10.1777 3.60842 1.69725
11.0518 3.92931 1.84209
11.7624 4.00257 1.84747
10.3072 3.67183 1.84551
9.86364 3.37801 1.56431
9.40551 3.5811 1.83696
8.27988 2.97913 1.36854
8.19154 2.96918 1.52052
8.1338 2.7341 1.39762
8.5653 3.13763 1.56383
8.92001 3.23402 1.56002
9.90595 3.99498 1.91823
8.54109 3.10273 1.6236
10.7888 4.01959 1.9785
8.46269 2.93557 1.40908
8.85809 3.45393 1.72665
10.1999 3.67911 1.86481
9.96732 4.20051 2.24838
9.40267 3.91848 1.97021
9.08891 3.80772 1.99638
10.2996 3.90751 2.08915
8.63654 3.16825 1.61537
7.69104 3.32574 1.82385
7.78445 3.2466 1.73326
7.80364 3.38688 1.77526
8.07583 3.52695 1.96762
8.96539 3.51885 1.91763
8.49839 3.06024 1.58713
8.5232 3.40863 1.95626
7.06203 2.60712 1.31378
6.4861 2.72536 1.51248
9.2402 3.48866 1.82845
7.36998 3.68548 2.14086
8.38323 3.47952 1.98707
7.76921 3.23304 1.85078
9.1935 3.65115 2.09382
7.86446 3.52077 2.02961
8.23893 3.64601 2.04009
8.8463 4.16818 2.35806
7.92778 3.54143 2.10332
7.50249 3.26521 1.9174
7.11513 3.84632 2.36605
8.42552 3.62628 2.12061
8.68374 3.70975 2.18123
7.98257 3.39687 1.96346
8.87497 3.91335 2.476
7.98284 3.62807 2.02661
8.53183 4.24996 2.61849
7.7363 3.44332 2.04953
5.99236 2.84163 1.75312
8.409 3.94862 2.3999
7.48013 3.60614 2.2363
8.87666 4.16238 2.56848
7.16672 3.74018 2.28345
5.71891 3.15006 2.06894
7.43558 3.64818 2.20996
7.83504 3.77031 2.45779
8.61915 3.91295 2.31971
6.70032 3.13947 2.0056
6.56198 3.22269 2.23367
7.83329 3.67069 2.35369
6.36759 3.39771 2.19264
7.33783 3.72534 2.33401
8.46409 3.89009 2.5556
7.83363 3.69316 2.4365
6.17191 3.37512 2.32943
6.33035 3.6341 2.5251
8.28242 3.96255 2.63249
7.55327 3.76728 2.41682
6.09629 3.03 2.17994
7.61797 3.55396 2.3862
7.40962 3.87229 2.47477
5.88547 3.08879 2.18873
5.45465 3.26912 2.37156
7.02581 3.36045 2.26211
7.08587 3.49981 2.28621
6.91358 3.75863 2.64409
6.80913 3.32827 2.38034
5.55398 2.84326 2.18446
7.27617 3.63307 2.51703
5.97736 3.55174 2.53712
7.22832 3.77965 2.78228
6.76174 3.5329 2.49857
7.19847 3.75115 2.65158
6.129 3.31854 2.35523
6.94279 3.97315 2.90273
6.57329 3.74367 2.77591
6.28771 3.3748 2.50493
7.83401 3.94249 2.86647
6.11222 3.65995 2.74244
6.16001 3.56441 2.6837
6.29042 3.26217 2.34323
6.11197 3.21793 2.39468
5.77661 2.94837 2.2539
6.55207 3.82317 3.00572
6.33307 3.49376 2.51117
6.40265 4.00898 3.10949
6.25967 3.78644 2.95399
6.47659 3.57014 2.68842
5.6951 3.31997 2.48341
6.12857 3.64289 2.85839
7.22026 4.17101 3.25812
5.49315 3.26708 2.59318
5.76612 3.46393 2.57097
6.5104 3.42592 2.66269
5.47473 3.75413 3.09872
5.62389 3.15845 2.56351
6.67077 3.78926 2.9961
6.59004 3.66763 3.05223
5.47442 3.40538 2.6577
5.26153 3.97544 3.41383
5.28573 3.28393 2.64735
5.03658 2.91583 2.39826
6.02308 3.73645 3.04284
5.88539 3.57698 2.89788
5.06658 2.90949 2.38394
5.58138 3.72366 3.38001
7.01266 4.27848 3.48047
5.7766 3.32274 2.78612
6.5448 4.02408 3.10297
4.96237 3.45554 3.20716
5.95573 3.3996 2.95081
5.33968 3.32603 2.84581
5.49016 3.69209 3.1205
4.90639 3.37294 2.87886
5.84433 3.80059 3.34965
5.72806 4.09838 3.55204
5.24995 3.45346 2.96801
7.04593 4.51289 3.7649
5.11414 3.31585 3.24457
5.34259 3.71619 3.19706
5.70657 3.87436 3.21979
4.94745 2.99869 2.73341
4.89384 3.12449 2.82023
4.80147 3.16202 3.19887
5.70411 3.49266 2.73188
4.98349 3.60478 3.32654
5.62708 3.81164 3.20863
5.75046 4.15474 3.77311
4.3604 3.07575 2.96148
5.13622 3.51632 3.41542
5.25278 3.83157 3.45618
5.25607 3.80053 3.49437
5.21565 3.59104 3.70177
5.16332 3.26746 2.88734
5.43591 3.79185 3.62148
5.31976 3.93285 3.62053
5.37829 3.18776 3.0051
5.4025 3.7079 3.49242
5.79613 4.2718 3.83082
4.32648 3.20533 3.29851
4.81881 3.75709 3.60879
5.01769 3.49913 3.61922
4.9352 3.33435 3.19786
5.25442 4.07073 4.19435
4.74077 3.43713 3.32247
4.84787 3.52013 3.56609
4.92858 4.01764 4.00381
4.90662 4.02606 4.24474
5.52279 3.75476 3.73991
5.24566 3.4666 3.37779
5.02282 3.5924 3.23923
4.49888 3.38805 3.46768
4.41205 3.6568 3.73829
5.3591 3.59853 3.79517
4.76995 3.40348 3.50401
4.86546 3.73504 3.30569
4.11272 3.64492 3.92238
4.65117 3.61501 3.6872
3.95318 3.14356 3.14862
3.45032 2.98043 3.21323
4.78045 3.42827 3.36509
4.15463 3.2788 3.68688
4.89091 3.51046 3.41614
4.71544 3.52828 3.77013
4.23203 3.68724 3.75525
3.96512 2.87196 3.28502
4.21166 3.51048 3.99554
4.86697 3.76525 3.65969
4.93287 3.98635 4.57405
4.92366 3.6116 3.80783
4.79975 3.92573 4.16264
4.03897 3.50659 3.95448
3.90288 2.89376 2.89257
4.45626 3.75735 4.23909
4.25002 3.46788 3.68129
4.2191 3.45368 4.07869
3.63757 3.72876 4.13741
5.55941 4.41059 4.20656
3.74487 3.11143 3.6145
3.89346 3.4576 4.03877
3.57417 2.95301 3.43749
4.50567 3.53807 4.35231
4.20261 3.42275 3.52651
4.01837 3.51042 3.91098
3.53304 2.80548 3.02444
3.33975 2.87686 3.3049
3.33187 2.95207 3.61205
3.88678 3.29131 3.68804
3.93418 3.68277 4.26172
4.24222 3.9119 4.36059
4.42183 3.72829 4.50555
4.19851 3.17979 3.59617
3.73545 3.26875 3.48072
4.59253 4.28492 5.23226
4.0937 3.56117 4.01204
3.99575 3.71118 4.0312
3.54224 3.16891 3.9977
3.46396 3.28367 4.02455
4.64985 3.89635 4.42157
4.17768 3.82079 4.56599
3.94254 3.44642 4.02656
3.59838 3.26492 3.67365
3.84478 3.7839 4.88466
4.22492 3.89706 4.44598
4.04957 3.62477 4.4779
3.31863 3.43829 4.37001
3.68568 3.43867 4.29428
4.23216 4.04182 4.91603
4.6812 4.14157 5.21869
3.97604 3.37461 3.92007
4.33063 3.626 4.72311
3.46872 3.0357 3.52563
4.29198 4.20738 5.32798
4.04992 4.15424 4.75385
4.10584 3.6678 4.99206
3.78221 4.16309 5.39358
4.18008 4.00271 4.90987
3.64168 3.51993 4.41752
3.84439 3.64377 4.33751
3.65148 3.88367 5.27019
4.49913 3.81765 4.94114
3.89534 3.47844 4.0554
3.70515 3.05887 4.00534
3.25334 3.37787 4.49134
3.27009 3.00686 3.95189
3.53195 3.84039 5.07892
3.26161 3.49258 4.62832
3.64815 3.32085 4.01927
3.75157 3.82884 4.90168
3.49519 3.45607 4.51948
3.92392 3.75713 4.82665
3.96032 3.6265 5.01665
3.61006 3.83763 5.20289
4.15194 4.10769 5.18715
2.91423 2.99482 4.48526
3.59669 3.49306 4.71105
3.07866 3.86941 5.31107
3.41294 3.30393 4.10458
3.53305 3.52388 4.74557
2.86922 3.4632 4.69267
3.31376 3.02691 4.32482
3.48977 4.16962 5.8696
4.09247 4.30114 5.72109
3.70692 3.96548 5.6665
4.00342 3.84118 4.83984
2.96163 3.61592 5.4222
4.47585 4.33142 5.87831
3.91855 3.90167 5.26075
3.6822 4.17307 5.86943
4.04368 4.31428 6.02901
4.06151 4.09617 5.82123
4.42002 4.39527 6.09388
3.88652 3.71749 4.9614
3.00413 4.00969 5.83217
3.69515 3.66873 5.46866
4.59159 4.17044 5.3911
3.04783 3.49993 5.11258
3.35275 3.69326 4.99933
2.70898 3.30955 5.08341
3.24314 3.64778 5.83897
3.76566 4.09676 5.56574
3.32981 3.51017 4.75664
3.10061 3.75414 5.89031
3.18553 3.27767 4.50269
3.04069 3.22964 4.78308
3.34751 3.99788 5.7361
2.99341 3.71845 5.3876
3.24696 3.30695 4.66216
3.288 3.37197 5.16928
3.31959 3.4694 5.0674
3.08889 3.63286 5.83227
3.57604 3.64625 5.02059
3.20719 3.44046 4.97204
3.03946 3.50858 5.2755
2.72115 3.50964 5.82208
3.25179 4.12741 6.27942
3.1613 3.55325 5.25639
3.43982 3.59676 5.10034
3.09345 3.55862 5.75773
3.27623 3.49663 5.62911
2.95277 3.19214 4.7664
4.06634 4.58816 6.42125
3.14811 3.93159 6.1538
3.04257 3.80662 5.90122
3.00643 3.26826 4.78222
2.82301 3.57301 6.05031
3.28889 3.85755 5.52882
3.27374 4.42882 6.87288
3.07799 3.54468 5.33222
3.16536 3.77823 5.66242
2.68275 3.23042 5.30507
2.99352 3.3883 5.70749
3.1647 3.57383 5.49784
3.68623 4.30482 7.04643
3.09085 3.88676 6.29173
3.75959 4.37159 6.64148
3.2683 3.92711 6.56865
3.18699 4.07292 6.62518
2.95205 3.16 5.03793
3.08447 3.51947 5.41357
2.51868 3.60321 6.1187
3.03901 3.67514 5.79258
2.96642 3.57632 4.97178
3.15385 3.67826 6.28884
2.90743 3.51983 5.62601
2.95893 3.19556 5.37601
2.86537 3.87465 6.22062
3.3964 3.87972 6.45207
3.06883 3.24458 5.59227
2.7856 3.08219 4.86813
2.97174 4.16651 6.91809
2.94946 3.48539 6.14155
2.83579 3.61929 6.35469
3.06588 3.97053 6.69627
3.68039 4.57823 7.13594
2.83099 3.75569 5.67847
2.28264 3.56111 6.50653
3.12474 3.30186 5.61003
3.12067 3.90128 6.75115
2.58141 3.3292 5.65538
2.73759 3.50195 5.91998
3.01054 3.7377 6.28768
2.90627 3.61915 5.58841
2.67663 3.41929 6.29674
2.87708 3.51144 6.11824
2.94569 3.55891 6.45053
2.84529 3.51037 5.66752
2.3769 2.95858 5.28146
2.39536 3.9241 6.84735
2.79324 3.43798 6.14881
3.01703 4.11686 7.47546
3.07971 3.97346 5.86703
2.1368 3.16653 5.89689
3.06444 3.81746 6.4572
2.69598 3.51885 6.27244
2.49047 3.83542 6.62957
2.80899 3.88863 6.76675
2.64306 4.21754 7.60984
2.7532 4.0159 8.1583
3.53882 4.50181 7.115
2.81657 4.05224 7.79124
3.13135 4.27078 6.8139
2.68561 3.6143 6.252
2.61748 3.1659 5.36826
2.88158 4.03464 7.14391
3.15534 4.36002 7.62512
2.68953 3.27312 5.9093
2.776 3.99872 7.90905
2.84467 3.5213 6.29811
2.81445 3.8529 7.64867
3.18864 3.80813 6.40294
2.77173 3.6246 6.57874
2.59322 3.41918 6.06762
2.56246 3.75654 7.14642
2.4275 4.10507 7.80194
2.6872 3.45667 6.78295
2.6785 3.65576 6.87859
2.90792 3.98615 7.45363
3.46859 4.56394 7.80248
2.69998 3.86439 6.88941
2.88671 4.0676 7.47967
2.21871 3.39757 7.09199
2.84086 4.46897 7.91124
2.73416 4.46036 8.61615
2.27471 3.56869 7.36455
2.18704 3.44227 7.36926
3.6805 4.87226 7.53609
2.63867 3.64334 6.43261
2.31108 3.34514 7.05467
2.4596 3.46842 6.88666
2.31802 3.49651 6.88127
2.21937 3.56471 6.76597
2.62663 3.08684 6.26434
2.53542 3.55611 6.82322
2.64411 3.85115 7.22438
2.81967 4.86308 9.38566
2.43907 3.38629 6.39051
2.7716 4.17104 7.9196
2.36606 3.55543 6.08934
2.11034 3.41788 7.49786
2.45876 3.22916 6.78028
2.82915 5.16837 11.9913
3.42552 4.71091 7.14032
2.38484 3.48457 6.98366
2.64404 3.82454 7.17915
2.63176 4.07057 7.48118
2.38363 3.76996 8.1873
2.82727 4.43539 8.40793
2.61653 4.4676 8.67018
2.3139 3.44046 6.59006
1.97308 3.51169 8.02119
2.65558 3.6458 6.98663
2.09296 3.49994 8.19425
2.6331 3.34676 6.30879
2.29332 3.80272 7.74125
2.41773 3.32721 6.84122
2.68721 3.38944 6.72448
2.05675 3.44219 7.151
2.44529 3.7219 7.49187
2.69092 3.98954 7.64272
2.64441 4.09002 8.78878
2.58576 3.59228 7.01056
2.41364 3.45903 7.1091
2.35926 3.40546 7.0935
2.23134 3.59668 7.72451
2.7419 4.6437 8.37566
2.49055 4.0627 9.20751
2.70631 3.90508 8.28481
2.75101 4.62354 9.10364
2.44341 3.80131 7.78095
1.7774 3.22709 7.54296
2.62399 4.44787 9.83092
2.55459 3.17107 6.10036
2.05191 3.53853 7.86205
2.38151 3.3875 6.77312
2.40621 4.01582 7.97728
2.12275 3.58437 7.48373
2.10233 3.19308 7.1999
2.70637 4.19034 8.89116
2.26213 3.61009 7.19094
1.93364 3.44609 7.92876
2.04419 3.35758 6.95039
2.26093 3.82167 8.05646
2.10573 3.57165 7.66144
2.25118 3.66466 8.27878
2.25667 3.53497 6.97196
2.68627 4.09355 8.32487
2.42532 4.68649 9.39726
2.03147 4.13807 9.56527
2.24221 3.10258 7.42705
2.60796 3.86224 8.36137
2.37047 3.696 7.86381
2.5558 4.26629 9.15531
2.29547 4.02079 8.80972
2.13807 3.33998 7.292
2.06221 4.03381 9.04022
2.4827 4.05985 8.90679
2.28061 3.98154 8.65637
2.16054 3.31628 7.58606
2.19842 3.91569 8.6726
2.36269 3.81669 9.11663
2.55098 4.20764 8.87725
2.22845 3.91813 8.32602
2.57608 4.0207 8.60015
2.11177 4.0777 9.42377
2.14641 3.85284 8.91899
2.19648 3.49377 8.26041
2.52342 4.36008 10
1.92939 3.76296 9.14113
2.65603 4.03057 7.88091
2.05471 3.79602 8.37312
2.08417 4.1633 9.98597
2.24895 3.28323 7.87982
2.42743 3.99517 8.76695
2.54975 4.2927 8.719
1.90007 3.83887 8.71049
1.9015 3.46342 7.82839
2.14733 4.05056 10.1575
2.02249 3.41285 8.12054
2.41461 4.36476 10.4179
2.38477 3.5156 7.26547
1.8089 3.82594 8.53921
2.01105 4.27544 10.2264
1.82527 2.8021 6.79657
1.80668 3.68648 9.26676
2.38098 4.94046 11.1101
2.62907 4.66347 10.7101
1.98109 3.82089 8.20986
2.04069 4.0035 8.843
1.95742 3.35909 9.49024
2.42773 3.64228 8.84277
2.49045 4.14166 7.90054
1.66789 3.41704 8.87963
2.05359 3.87329 8.58611
1.75243 4.09378 10.9147
2.48526 4.19777 9.3911
2.25744 3.71041 9.02731
2.29731 4.69517 10.5784
2.00913 3.69061 9.35716
2.51318 4.38197 9.96801
1.99704 4.69414 12.1137
2.19802 3.80859 9.99838
2.43983 4.55632 10.2747
2.35522 3.84134 7.98487
1.89998 3.47319 8.24874
1.93109 3.86343 9.53475
1.95287 3.87084 9.99952
2.23564 3.96288 8.64033
1.83988 3.41637 9.38698
2.18419 3.64226 8.14848
1.86012 3.40067 8.68028
1.65887 3.026 7.60293
1.98326 3.95062 9.52584
2.138 4.27611 11.2792
2.26514 4.03882 9.34114
1.84986 3.66137 8.85433
2.3606 4.77954 10.7051
2.34644 4.4517 11.6988
2.03238 3.70021 9.37774
1.96504 3.79415 9.74859
2.06521 4.15552 9.67658
2.10557 3.87321 9.63674
2.06091 4.00376 9.833
1.55109 3.05998 8.75873
2.24583 4.49368 10.404
1.89109 3.79042 9.59651
2.08305 4.17627 10.5465
2.2256 3.8861 9.78081
2.00905 3.58236 8.39
1.9261 3.49912 9.21628
2.10279 3.72165 8.03503
1.61779 3.3109 9.65119
2.31201 4.5011 10.3892
1.9133 3.69622 8.82742
1.59467 3.29147 8.2656
1.67584 3.08022 9.36247
2.24653 4.13927 9.93366
1.8153 3.46838 8.46681
2.09754 3.96107 9.70685
1.79411 3.4641 9.12006
1.71131 3.38238 10.2306
2.01998 3.49522 8.98554
1.91317 3.66924 8.9189
1.78976 4.08965 9.56456
1.89855 4.38373 10.4789
2.09296 3.85751 10.1906
1.98413 4.15032 11.0464
2.10344 3.81816 10.9235
1.97702 3.85225 10.2795
2.28097 4.22145 10.1942
1.81226 3.66922 10.2702
1.98631 4.36944 9.97117
2.06444 5.04454 15.1813
2.55607 4.81387 12.1656
2.28198 4.26813 10.7829
1.98456 4.03073 11.0608
2.15353 4.08016 11.9502
2.07545 4.78044 11.5807
2.02711 4.04673 10.6213
1.7819 4.26397 10.7693
1.91356 3.78725 9.19641
1.61579 3.39843 9.64864
1.80243 4.1664 10.9743
2.1157 4.42238 10.9639
1.79884 3.27858 9.83129
2.12706 4.63561 10.55
1.93646 3.85086 10.5914
1.73068 3.52823 10.4645
2.24824 4.80469 10.6983
1.57865 4.3864 13.7027
2.35187 4.68785 12.3228
1.5485 3.66081 11.0636
2.05449 3.45915 8.58162
1.85455 3.95818 11.3471
2.04727 4.36571 10.1251
1.82276 3.34758 9.24814
1.82726 4.20635 12.1672
1.91931 3.51128 8.93655
1.39573 3.01248 8.78454
1.67748 3.96803 10.1999
1.98848 4.16982 11.6636
1.74964 4.10009 10.3869
1.93301 3.93404 11.2192
2.09563 4.05798 11.4224
1.68734 3.82951 10.8978
1.88388 3.58086 9.91867
1.71637 4.13092 10.8087
1.68366 3.88999 11.8015
2.08853 4.27376 12.0606
2.16038 5.17337 12.8475
1.70278 3.38936 9.77939
1.78889 3.82762 12.7474
2.06543 4.51688 11.1404
1.76342 3.29422 9.53115
1.97152 4.09397 11.1371
1.61685 3.1227 8.84701
1.78204 3.87973 10.3039
1.89787 3.96547 10.1783
1.71441 4.08976 10.9949
1.75342 3.98796 13.2226
1.98232 4.041 10.9528
1.81439 4.72328 12.9981
1.96899 3.73891 9.57373
1.7311 4.27062 10.5304
1.51393 3.15262 9.09553
1.52212 3.62765 11.1348
1.51315 3.93565 11.4627
1.9448 3.73749 10.1147
1.49333 3.47019 11.3636
1.84877 3.90621 14.9262
2.44092 4.11479 9.66681
1.84224 4.89682 12.2098
1.8532 4.90358 13.9409
1.82093 3.89929 11.588
1.98493 4.25109 12.05
1.90529 4.71074 12.6509
1.97447 3.94055 12.1697
1.86981 4.26904 12.5997
2.08254 4.19773 10.7883
1.89121 4.11012 12.7611
1.73659 3.87361 11.7471
1.8014 3.76553 9.47738
1.74771 4.66429 14.22
1.82594 4.20554 12.6859
2.07762 4.58785 11.725
1.70098 4.18332 12.2888
1.57058 3.74181 12.0097
1.97701 4.49049 13.0805
2.01139 3.89424 10.0266
1.6081 3.50101 10.2421
1.83185 4.31075 14.4184
2.14577 4.31072 12.0694
1.66577 4.00921 11.5141
1.58075 3.7615 11.7898
1.67382 3.66767 11.102
1.80886 3.64991 10.8415
1.49113 3.5914 10.6619
1.86163 3.78059 10.476
1.79586 4.14776 11.6203
1.71621 3.83147 11.1222
1.72059 3.85388 11.1454
1.5865 3.4282 9.85306
1.59834 4.06384 12.5134
1.72854 4.19118 12.3921
1.75382 4.01048 11.7766
1.84077 4.45527 14.1402
1.99611 4.05245 10.9191
1.47551 3.44143 11.5089
1.76575 4.25765 11.7205
1.78353 3.8104 11.1554
1.44375 3.64349 11.5875
1.474 3.23606 11.2342
1.70531 4.09392 11.2979
1.66102 4.17481 12.0863
1.43789 3.84533 12.267
1.6324 3.59396 11.8154
1.79636 4.29852 11.2132
1.63106 3.59599 10.7825
1.65749 4.30204 13.3517
1.70013 4.34911 14.0802
2.00385 4.79548 13.8455
1.94067 3.54931 10.4805
1.47753 3.44149 9.79752
1.40391 3.38552 10.2196
1.32157 3.34095 10.9466
1.54253 3.64557 10.9655
1.59541 3.86808 12.0588
1.69235 3.42176 11.199
1.73109 4.39588 13.2121
1.63133 4.31042 12.2995
1.59325 4.38658 12.3875
1.4214 3.59355 13.7254
2.06998 4.11909 11.9037
1.71093 4.34791 15.2841
1.7839 3.56708 10.9036
1.70869 4.19445 12.0817
1.80529 3.93498 11.9866
1.71715 3.75086 10.6921
1.73441 4.02462 11.3388
1.72639 4.31861 13.9815
1.72819 3.73811 10.8482
1.45802 3.44264 10.7717
1.54498 3.63176 11.6972
1.65302 3.78673 13.0816
1.9393 5.27264 14.0266
1.49618 4.22028 13.9957
1.59663 3.47025 10.2582
1.29771 2.97195 11.1702
1.90426 4.35849 11.319
1.27527 3.14373 11.4976
1.64012 3.82719 11.9508
1.60717 4.09669 11.7319
1.35631 3.88625 13.1549
1.75188 4.03164 14.5443
1.93078 3.74204 10.314
1.41569 3.98854 13.1977
1.53887 3.29804 12.6584
1.57372 3.75516 9.9603
1.38811 3.83371 12.0678
1.83613 4.85639 16.326
1.74539 3.5555 10.2224
1.58919 4.13962 13.7538
1.36184 3.93661 11.8757
1.42997 3.95562 12.3797
1.57501 3.61497 13.0242
1.86614 4.37122 14.4083
1.95741 4.38193 12.7587
1.53943 4.39089 12.9192
1.58712 3.83288 12.7145
1.49318 4.18515 15.117
1.58482 3.99956 11.2452
1.47369 3.50326 11.5899
1.38455 4.17266 13.3999
1.56956 3.84348 11.972
1.40861 4.02272 12.2397
1.42435 3.78856 12.3699
1.33047 3.29251 11.3535
1.46487 3.72019 11.9009
1.45569 4.39618 14.8805
1.47947 3.72142 12.9153
1.64469 4.00453 12.2191
1.45976 3.71039 10.5554
1.30211 3.9593 14.7128
1.74591 4.75559 14.8973
1.64193 4.21604 15.2542
1.63532 3.68729 11.3588
1.41748 3.84525 15.4008
1.92569 4.42353 12.8696
1.54218 3.76704 14.1217
1.92026 4.47289 14.5908
1.84099 4.14481 12.9092
1.6289 3.77699 12.7224
1.58618 3.80306 12.3875
1.4528 3.43348 11.1316
1.40807 3.73218 12.1969
1.57192 3.15123 11.0589
1.53645 4.1637 12.0442
1.46417 4.00411 13.2045
1.44418 3.25907 12.2094
1.63402 5.23594 15.9612
1.46261 3.49287 13.3825
1.61888 4.02782 13.5501
1.76628 4.76621 14.5753
1.5168 4.35267 13.2231
1.40879 3.41363 11.8539
1.47268 3.73447 12.9898
1.47563 3.95825 13.8008
1.50374 3.54075 11.486
1.22647 3.69876 13.3614
1.69704 4.40872 14.2394
1.78515 3.5966 12.276
1.59192 4.00854 14.7524
1.59983 3.82279 10.9718
1.55188 4.63242 13.1654
1.22926 3.48292 13.6053
1.64832 3.87642 14.2937
1.63878 4.70587 14.3472
1.54662 3.40992 12.3743
1.5572 4.50702 15.4349
1.63775 4.25082 14.0728
1.59865 3.82309 13.5619
1.49285 3.61003 10.5457
1.33824 3.83069 13.3087
1.46515 3.99187 13.6909
1.45277 3.92479 15.3375
1.77098 4.42594 12.2589
1.19799 3.53088 11.7729
1.59577 4.26574 14.6231
1.53719 4.69699 16.5802
1.86769 4.77477 17.5082
1.51642 3.862 12.2286
1.28516 4.05122 13.2909
1.46091 3.5509 12.0445
1.58879 3.96745 12.7621
1.39618 3.61948 14.3475
1.68018 4.07357 12.0449
1.25353 2.96713 13.7004
1.63736 4.50966 15.4541
1.45265 3.98977 11.7924
1.36529 3.23703 12.8381
1.51585 3.62276 12.8556
1.64067 3.88728 13.1673
1.54897 4.40839 15.4524
1.66022 4.30928 13.1196
1.56138 4.34296 15.7539
1.57763 4.37283 14.5571
1.67744 4.84307 15.3227
1.44929 3.76629 12.8261
1.32388 4.30691 16.8556
1.79026 5.6303 18.1602
1.48397 3.40587 13.4949
1.33748 4.11475 12.2991
1.34665 4.08523 15.8841
1.58643 4.06541 15.6824
1.64797 4.51947 15.0983
1.47439 3.5874 12.4928
1.3887 3.82679 11.1368
1.31046 3.53263 12.0442
1.33534 4.22592 14.0841
1.33105 3.73149 14.944
1.53337 3.75965 14.1916
1.56713 4.40794 18.2609
1.88944 4.46898 14.4746
1.75004 4.27865 12.6113
1.17279 3.69531 13.5234
1.24295 4.08785 16.0112
1.59187 4.53078 14.1694
1.27976 3.31048 13.3122
1.45381 4.33757 14.944
1.48602 4.1529 13.9404
1.57061 4.23669 15.015
1.53869 4.45295 14.9869
1.33979 3.74371 16.1368
1.83197 4.25056 14.93
1.47627 4.03793 12.9982
1.26772 4.20461 15.4387
1.51963 3.87004 13.7577
1.63742 5.14974 16.0665
1.44791 3.85485 14.1942
1.52872 4.09936 16.9261
1.92602 4.19546 15.4487
1.68133 4.7633 18.6872
2.00641 4.73989 14.5546
1.3257 4.42686 14.4775
1.52537 3.93091 15.3728
1.67797 4.09449 13.9871
1.53593 4.91322 15.9713
1.47003 4.15958 15.0142
1.48484 3.65894 13.8593
1.49012 4.74214 15.4003
1.66642 4.60206 15.4646
1.50347 4.80296 16.855
1.28273 3.84852 16.9314
1.58403 4.16564 15.0174
1.63527 4.1242 14.0418
1.3407 4.00052 16.016
1.79986 5.00228 16.0101
1.51144 4.36936 16.5015
1.59507 4.6239 14.7711
1.55029 4.4352 18.1492
1.58163 4.34145 14.6957
1.27011 4.46951 16.9025
1.43873 4.0217 16.1834
1.40704 4.84021 18.4704
1.53548 4.69636 17.3027
1.60575 4.19343 14.3776
1.43406 4.12616 15.6698
1.5531 3.65646 12.0878
1.2087 3.84438 13.9637
1.45204 4.00906 15.0038
1.40671 4.08488 13.8938
1.38498 4.35079 15.8539
1.49699 4.87792 15.7048
1.29118 3.43322 13.5985
1.36212 3.8208 16.5811
1.58202 4.68173 16.6173
1.79042 5.07875 14.8702
1.33388 4.21699 15.0949
1.33172 3.50239 14.0201
1.18719 4.07155 15.774
1.56026 4.39758 15.8527
1.48318 3.88602 12.0546
1.27102 3.91299 14.5006
1.36148 4.2852 16.9087
1.50798 4.39684 15.8184
1.39531 4.03809 15.5119
1.42187 3.85181 13.3092
1.35042 4.11265 14.2067
1.40956 4.21919 16.2975
1.43017 3.93095 13.2022
1.30826 4.42812 16.0659
1.41109 3.82717 13.2982
1.31162 4.47997 17.2687
1.46254 3.65837 13.0848
1.3789 3.86924 15.0901
1.59112 4.68672 19.1625
1.80331 4.04326 15.2176
1.53591 4.85468 18.007
1.4853 4.12513 14.2379
1.38274 4.26819 13.3546
1.26683 3.62282 13.8068
1.52911 4.25741 15.0984
1.37681 3.81862 15.8208
1.53862 4.00415 14.4804
1.3215 4.06007 14.7392
1.33396 4.3448 16.5993
1.50766 4.1695 15.484
1.46117 4.32576 16.6584
1.44753 3.70064 14.6254
1.23596 4.22958 15.7363
1.44689 3.66535 13.183
1.50357 4.2742 16.321
1.44894 4.02901 16.0511
1.56781 4.34568 14.9797
1.28209 4.27333 17.5047
1.44367 4.32589 14.269
1.31938 4.72396 16.422
1.41071 3.92 14.3839
1.59635 4.34602 15.5744
1.30766 3.72718 14.6307
1.29237 3.63423 14.9107
1.3582 3.48186 12.2937
1.19094 3.99206 16.3525
1.47659 4.2844 17.7582
1.68113 4.66438 15.7516
1.57298 4.2158 16.0058
1.55611 4.73253 15.0782
1.54465 4.39083 17.142
1.4634 4.56209 17.1323
1.44397 4.82498 18.8544
1.42978 4.27743 16.3008
1.40946 4.7226 16.6168
1.36278 4.29972 14.7409
1.17683 3.46878 17.0244
1.42493 3.98926 13.8067
1.27454 4.10767 16.1436
1.3888 4.49313 15.6072
1.38021 3.94493 17.2089
1.47544 4.44736 15.1603
1.60781 4.38019 19.0636
1.58871 4.35934 14.0651
1.33247 3.61889 14.0018
1.42996 4.55294 16.6794
1.45732 3.47933 12.738
1.04146 3.58127 14.2519
1.37336 4.25357 15.9522
1.45002 3.91263 15.6673
1.36507 3.8173 14.431
1.21022 4.5466 15.9662
1.41387 4.39888 16.2334
1.42134 3.79479 16.0636
1.53516 4.24431 15.0061
1.45602 4.43108 15.9142
1.12461 3.69475 14.8717
1.23399 4.09302 17.0194
1.50942 4.28775 14.9102
1.39348 4.23198 17.456
1.47847 3.49784 15.6037
1.37189 3.57457 14.4557
1.37019 4.12877 15.508
1.35986 2.98847 12.4318
1.2692 3.61536 14.2825
1.27795 3.92093 13.863
1.26446 4.16866 16.1161
1.53358 3.84234 12.0414
1.18313 4.0403 17.2023
1.37545 3.96309 16.2707
1.31876 4.52566 15.2306
1.28174 4.62211 17.7533
1.38284 4.06143 17.4892
1.50664 3.91647 16.1869
1.50327 4.19505 14.3434
1.39823 4.89226 17.4968
1.38263 3.78009 18.2907
1.55581 4.60377 14.9042
1.23423 3.86599 16.917
1.36534 4.38141 15.7444
1.45388 4.61797 17.0832
1.42525 3.98318 13.8913
1.31089 4.75623 18.1624
1.44286 3.44885 14.4767
1.4148 4.84417 18.2412
1.41782 3.62433 15.5466
1.43565 4.18919 15.3373
1.43097 4.03981 15.7783
1.48544 5.303 19.6511
1.51339 4.44564 17.98
1.50484 4.46656 17.8833
1.42562 4.86201 17.2036
1.19857 4.47353 20.7266
1.54064 4.86333 16.3736
1.42052 3.90462 14.9024
1.36873 3.73563 14.5225
1.20446 3.55832 13.8968
1.16366 3.63782 14.8089
1.27492 4.09593 15.5059
1.31226 3.62409 16.3332
1.39958 4.18238 13.4621
1.11645 4.49728 17.5386
1.38434 3.88356 14.0818
1.26155 3.87647 16.8256
1.4463 4.90638 17.8322
1.44111 3.40271 17.2257
1.47022 5.05083 18.3079
1.50792 4.2285 17.5481
1.40793 4.47575 16.5085
1.34934 4.22138 19.1178
1.59565 4.85344 17.3258
1.5126 4.25465 15.9695
1.19029 4.52049 16.2231
1.33235 3.91878 16.3076
1.4352 4.97382 18.8475
1.60808 4.73189 17.698
1.49539 4.6697 15.8134
1.33488 4.04538 17.6665
1.35939 3.54253 15.8302
1.44456 5.28363 19.9024
1.53228 4.35538 16.1956
1.32866 4.61971 16.8634
1.30198 4.46161 17.665
1.41794 3.91425 15.6344
1.24601 3.80194 16.5399
1.46408 4.55421 18.2712
1.38005 4.83344 14.9665
1.11605 3.32467 15.5446
1.29253 4.20607 15.7554
1.32649 3.56666 15.5734
1.22893 4.51796 17.5
1.41101 4.4455 16.0763
1.12529 4.11717 15.2699
1.34212 4.18584 13.5219
1.07358 3.71448 16.0033
1.35162 3.89913 16.418
1.39233 4.35435 13.8541
1.26628 3.87909 16.183
1.34201 3.61404 16.9023
1.34233 3.77739 14.1906
1.19448 4.44953 20.1239
1.68557 5.36516 22.2206
1.50847 4.73401 17.5668
1.47145 4.75849 19.9976
1.60969 5.07718 20.1736
1.66673 5.1242 18.0433
1.40449 4.26566 15.2992
1.26677 3.82254 15.7341
1.33379 3.9089 14.9498
1.48513 4.18455 16.4113
1.3974 4.09188 15.5779
1.21557 3.58839 14.8092
1.27436 4.11039 15.9413
1.19283 4.00375 17.7513
1.38666 4.00793 17.1283
1.46892 4.38252 15.7223
1.3031 4.57425 17.3085
1.45893 3.65729 16.9337
1.50086 4.10749 17.1931
1.49545 4.53989 16.553
1.28971 4.41242 16.0351
1.20017 3.96723 17.3915
1.38401 4.50015 17.9422
1.42306 3.76196 14.0292
1.25026 3.96537 15.4563
1.27298 4.78713 17.8652
1.37827 3.82357 17.4837
1.38582 3.86273 14.3743
1.20819 3.69388 16.5577
1.23499 4.43926 13.3711
1.14118 3.44115 18.3094
1.52705 4.00766 16.9284
1.46148 5.24482 17.2066
1.4648 4.12449 18.0441
1.29288 4.51864 17.3576
1.42284 4.48527 18.6945
1.71258 4.55967 16.4727
1.24776 3.49118 16.6433
1.39866 4.44752 16.8489
1.39389 4.52516 14.3781
1.16269 4.25046 17.6391
1.29121 4.0548 16.911
1.12741 4.47492 14.7628
1.22659 3.23248 13.9832
1.16237 3.53616 19.9765
1.59818 4.75012 17.2876
1.44198 4.79362 17.1165
1.33224 3.73236 14.3698
1.21738 4.15444 17.3451
1.42734 4.6973 16.492
1.31879 3.48763 17.7677
1.267 3.27297 14.4122
1.14554 4.06915 14.5966
1.09053 3.83135 16.6857
1.31094 4.07091 15.6277
1.1761 3.8903 17.262
1.5474 4.32455 15.6384
1.17183 4.0431 18.3403
1.25355 4.53024 17.205
1.23141 4.12763 15.7796
1.32686 4.4055 16.1736
1.33819 4.72944 16.5652
1.34601 4.13075 14.6475
1.14996 3.52818 15.6211
1.28791 4.38741 16.5629
1.21074 3.96885 16.4101
1.40418 3.8546 15.6119
1.18118 3.112 13.9476
1.09182 3.86316 16.0571
1.25204 4.07115 16.8034
1.23245 4.0936 15.954
1.3431 3.68661 12.8236
1.01369 4.58263 17.8336
1.45335 3.1711 14.7335
1.21768 4.21833 15.9441
1.40325 4.25531 18.4693
1.47964 3.85295 16.1667
1.31615 3.87676 14.871
1.18628 4.25767 15.7553
1.44571 4.62877 19.5328
1.60243 4.72417 15.836
1.2875 4.57241 18.2969
1.5061 4.19203 16.1545
1.47258 4.24478 16.8341
1.27744 3.76562 18.0687
1.43529 4.98388 17.8563
1.46365 4.90885 19.0019
1.49511 4.01959 18.0279
1.24246 4.74284 17.4791
1.39071 4.66601 23.2287
1.76062 5.18453 18.9217
1.50265 4.75489 19.6726
1.51194 5.18577 19.1963
1.41151 5.03593 20.1731
1.43161 4.85456 18.7383
1.4474 4.40197 18.4728
1.58721 4.5035 16.8407
1.19083 4.56057 18.8195
1.5445 3.99896 14.1967
1.20751 4.13616 19.5695
1.60114 4.4536 17.5876
1.34779 5.20693 15.6703
1.28042 4.12812 19.4445
1.4805 4.0235 14.9737
1.14773 4.35258 17.8801
1.34555 3.81451 16.6075
1.14186 4.90915 20.7342
1.70864 4.54229 18.1675
1.57275 4.70705 16.2771
1.3729 4.4699 17.4696
1.40415 4.86895 18.9361
1.52776 5.11249 27.1219
1.72251 6.16237 21.1474
1.56221 0 0