# pn-170911/RbIIA-30-AMC2-1280-1959.psd
# Power spectrum* (dif=0,1,2) (really just |FT|^2)
# NOTE: only the first half! (symmetric)
# weeks: 1280-1959
# 26 clock-days, 2 excluded
# PSD: 1441
3947.69 0.103334 0.00503444
137568 2.93049 0.00457168
1.00791e+06 22.5201 0.0128683
116797 5.70967 0.00508544
96075.7 6.42293 0.0121041
41932 4.86988 0.0070938
36263.1 5.65827 0.0109132
24131.8 5.16574 0.00736785
25748.7 5.06304 0.00881268
15769.2 4.28978 0.00976025
14528.8 4.64234 0.0108903
13644.5 6.11432 0.0169439
8349.31 5.69645 0.0109713
5279.66 3.68104 0.0136199
5585.73 3.82349 0.00869907
5387.23 3.19278 0.0160891
4742.91 3.66682 0.00827135
3478.59 3.97354 0.0225386
3803.84 4.54102 0.0108555
4658.19 7.36974 0.0314256
4650.17 7.32745 0.0193607
2523.67 4.05015 0.0280151
2436.61 4.45677 0.0164513
2623.81 5.18146 0.0229499
3058.35 6.01529 0.0188519
2373.15 5.55413 0.0267314
1257.4 3.11095 0.0196516
1692.05 4.96531 0.0292817
1212.64 3.80205 0.0299985
1636.76 3.5772 0.0245457
1312.24 3.25403 0.0282166
1369.43 3.37677 0.0243274
1247.31 4.18686 0.0344174
1294.77 4.19271 0.0275714
756.495 4.36033 0.0436494
911.961 3.70685 0.0282168
1041.49 3.3872 0.037833
776.054 3.44379 0.0285596
892.796 3.53309 0.0454795
720.648 3.44635 0.0306843
637.321 4.29545 0.0514761
660.87 3.17746 0.0329016
628.876 3.34992 0.0451763
592.208 4.20306 0.04064
677.406 4.16488 0.0458452
581.775 4.54083 0.0411646
718.7 4.11292 0.0529449
515.193 4.43303 0.0541055
587.139 3.85615 0.0472741
575.944 3.61425 0.038183
742.563 6.10051 0.0863035
671.443 6.14856 0.0960508
429.119 3.82912 0.0612187
418.231 3.86205 0.0713128
399.083 2.7671 0.0486075
550.919 5.50988 0.112711
384.668 3.26346 0.0470078
361.053 4.0022 0.0808808
361.875 2.96232 0.0422618
533.897 6.64429 0.111691
380.6 3.99115 0.0787425
299.411 3.16869 0.0668885
207.384 2.79986 0.0734933
210.542 2.59216 0.0559465
276.531 3.92682 0.0966219
391.179 4.73084 0.109872
302.549 4.80878 0.105125
295.054 4.42191 0.105266
460.142 8.08026 0.210857
259.757 4.47169 0.11615
273.402 4.21957 0.123903
239.805 4.41561 0.0974378
254.034 5.78454 0.168577
189.641 2.43879 0.0642763
158.211 3.69081 0.104505
254.417 4.60891 0.120425
192.563 3.433 0.10908
248.678 5.4438 0.177942
261.092 5.03781 0.134774
205.78 4.68165 0.14299
148.999 2.76123 0.0978653
298.053 6.32583 0.246104
155.669 3.98472 0.133118
157.206 4.46828 0.175118
184.82 4.56422 0.164922
139.896 4.92377 0.168892
214.953 7.3982 0.268375
185.026 4.69412 0.195967
231.638 6.15929 0.231917
159.047 4.64291 0.195382
124.808 3.04152 0.110976
139.16 3.52342 0.125554
123.355 3.81472 0.143579
145.808 3.98826 0.17066
237.52 5.76405 0.23753
175.201 4.54778 0.205156
147.71 5.60067 0.241291
116.611 3.30083 0.1544
132.52 3.58696 0.166117
101.134 2.49436 0.125338
111.196 4.33482 0.198607
212.93 8.17093 0.415208
102.904 3.62941 0.173552
107.733 3.56311 0.19075
146.376 4.36712 0.243616
81.399 3.80694 0.207827
103.693 4.17265 0.238822
145.002 5.1423 0.263864
129.356 4.54188 0.288802
98.5365 3.49561 0.190418
77.7906 3.07648 0.188286
79.2097 3.62939 0.206237
120.667 5.84399 0.385149
142.678 5.6364 0.321369
84.2758 2.78232 0.226428
109.562 4.93379 0.293878
93.9836 3.56776 0.23267
140.474 5.983 0.372868
104.727 5.23873 0.350817
98.1077 5.24571 0.343094
91.1341 4.41974 0.309481
75.9816 4.43668 0.317682
59.5591 2.71996 0.170784
82.2995 3.50689 0.25828
62.304 3.10739 0.229532
72.3098 4.13743 0.285106
97.69 6.19052 0.461693
71.0076 4.00054 0.306093
75.8025 5.13113 0.343868
95.5934 6.46131 0.508516
65.8506 4.4638 0.34655
76.1284 4.06602 0.326818
69.5041 5.08821 0.432752
92.4794 5.79616 0.496193
62.816 3.11869 0.235413
70.509 4.97343 0.436916
67.2394 3.05904 0.271598
50.0243 3.87218 0.348286
44.0625 3.00677 0.304318
73.4196 4.31976 0.358798
77.7137 4.24842 0.408799
58.5334 3.86527 0.377423
67.594 4.06663 0.383372
43.0255 3.32736 0.299478
51.3315 2.9509 0.342266
66.6838 3.83371 0.35031
59.3248 4.60227 0.422012
84.8364 6.88582 0.68046
54.2711 4.63311 0.514785
69.7107 5.88822 0.59475
45.687 3.39191 0.343775
48.6972 4.49309 0.43919
57.0216 4.67339 0.483666
60.3716 5.47284 0.612533
62.9949 5.08135 0.552221
55.0092 4.00098 0.43437
35.9331 2.88216 0.335671
48.0724 3.60565 0.418403
67.6114 6.18793 0.69625
68.7975 4.84826 0.588568
41.2687 3.74109 0.493339
35.8558 3.38641 0.394768
35.0349 3.23582 0.435653
50.1518 5.43632 0.631865
41.454 3.87921 0.532341
39.0678 3.14349 0.412276
67.0977 6.88461 0.854786
62.4634 4.79013 0.623322
52.3806 4.01983 0.53214
31.4279 2.78108 0.370085
56.0941 4.29083 0.606021
50.1644 5.33766 0.769016
46.0822 5.2991 0.789644
41.0359 4.3021 0.545515
37.504 3.73384 0.564302
37.6153 3.51393 0.501935
57.8741 5.47408 0.786779
48.6029 6.97183 1.06173
44.045 3.54987 0.577437
41.8502 5.72724 0.833053
35.0408 3.28644 0.483251
48.2258 4.60611 0.750517
32.4658 3.51718 0.559026
33.4855 3.83306 0.611083
32.5544 3.63957 0.593268
31.8945 3.71638 0.60493
56.1091 6.43955 1.02533
28.2369 3.30892 0.589489
43.0307 4.61278 0.751406
37.7696 4.10846 0.639907
32.8308 3.84047 0.670738
31.4223 5.02482 0.867345
40.3993 5.25586 0.840923
27.2366 3.35783 0.630941
25.7268 4.0816 0.668034
25.3046 3.43581 0.66843
37.395 4.59727 0.815112
29.6605 4.21648 0.78382
35.9548 5.07243 0.915932
35.6397 4.05015 0.722885
29.2257 3.91843 0.649554
36.5688 4.35621 0.803857
39.0807 5.59754 1.0879
37.5099 5.74903 1.09702
37.0904 5.84294 1.17837
19.601 4.39069 0.821399
30.1397 4.57504 0.932128
32.3279 4.90823 0.947872
28.117 4.56077 0.859864
34.7327 5.90237 1.23693
24.947 4.16993 0.900392
19.7143 3.62593 0.739297
30.8872 3.88701 0.759119
21.9336 2.41039 0.519707
33.48 5.9795 1.25251
18.8438 3.59965 0.864103
31.0154 4.30848 0.938271
16.6639 2.81072 0.678734
25.557 4.11027 0.881589
33.3833 5.48114 1.18237
36.3584 5.82811 1.30087
30.8078 4.38648 0.956984
36.0226 6.13187 1.3856
19.9587 3.87131 0.863647
27.069 4.13623 0.973296
25.8975 4.96841 1.27939
25.1184 4.95576 1.2614
22.1554 3.87693 0.872779
27.8854 4.99753 1.17351
27.4915 4.68275 1.15447
26.5985 4.07883 0.974475
34.2792 5.93314 1.52211
26.6651 3.56356 0.872886
18.9319 3.89254 1.00658
22.2502 4.33956 1.04279
26.4687 3.7246 0.98256
34.1396 6.41861 1.61316
22.0218 4.68093 1.36799
30.3918 5.16243 1.17091
20.6127 5.06892 1.33573
22.1278 3.41499 0.975468
35.8243 5.71503 1.51132
29.1035 6.5808 1.65484
20.5906 4.30437 1.16177
23.2478 5.35197 1.49921
28.8041 5.57108 1.58714
29.4187 5.15501 1.28615
24.4144 4.80193 1.35841
14.2592 2.71382 0.845497
24.2403 3.96141 1.13038
18.1435 3.78773 1.13878
18.7524 3.69764 1.15478
21.9635 4.12512 1.26848
24.8714 5.79795 1.73218
19.3249 4.49593 1.22376
25.1467 5.23715 1.64447
18.6547 3.81464 1.10771
18.741 3.24561 0.936565
21.4437 3.73928 1.12591
14.1307 2.73821 0.928168
22.1553 5.42665 1.62251
16.7534 4.78999 1.43095
15.5506 3.64475 1.23551
18.8399 3.33349 0.955875
23.5734 5.16738 1.74395
22.9076 5.10283 1.49919
13.4866 3.00901 0.990667
18.2296 3.1631 1.16645
16.1059 3.99546 1.17943
19.1527 4.8997 1.64912
16.7486 3.04062 0.989716
17.3781 3.76271 1.29584
17.6519 4.10749 1.2369
23.441 6.4729 2.30973
17.57 3.9433 1.36753
16.1297 4.43328 1.71084
21.2304 4.94515 1.62343
11.6253 2.93285 1.06807
17.1497 3.80604 1.24657
21.6052 7.15911 2.60653
13.572 3.94345 1.3728
18.7156 3.99252 1.33599
15.3134 4.44693 1.83233
19.7415 5.40673 1.90345
19.7308 5.50667 1.8674
11.5214 3.35577 1.31132
20.1239 5.46933 2.06028
13.6241 4.46721 1.89338
16.1758 4.92831 1.74236
16.4116 4.2886 1.53345
13.1321 3.26812 1.30205
15.855 4.12537 1.83389
16.2567 4.80462 1.77227
19.3366 6.70323 2.89667
8.87785 2.16644 0.944157
14.9965 4.4848 1.76902
16.6493 4.00621 1.62475
17.2868 4.49232 1.67
13.5014 5.28944 2.06594
10.3197 3.31437 1.52551
17.1749 4.64598 1.89436
15.9957 4.28178 1.72851
15.4 4.56647 1.83011
13.1936 4.60243 1.91827
18.6358 5.52913 2.28166
11.4304 3.42187 1.4132
16.0286 4.62817 2.05458
14.7469 4.12424 1.41954
14.6338 4.43759 2.1393
11.8259 3.04337 1.33545
13.4082 4.01112 1.59192
14.2658 4.21036 1.80104
13.1044 4.91724 2.26743
15.7065 5.04534 2.26291
15.2997 3.94394 1.79183
9.94882 3.89543 1.94535
12.6023 2.93532 1.38345
12.0471 3.65637 1.64312
14.7165 5.64949 2.76386
10.659 3.30343 1.44742
8.85175 2.77457 1.34651
12.9579 5.00838 2.44021
13.28 3.8257 1.84461
12.286 3.69246 1.48584
10.7114 4.591 2.21644
14.778 4.64735 2.01821
11.9371 3.70867 1.84004
12.7312 4.61948 2.11329
17.0511 5.53133 2.43952
10.0854 5.2425 2.87787
12.6058 4.2604 1.95733
16.117 6.13256 3.07111
11.8787 4.6835 2.2976
10.9065 3.14402 1.71125
9.28729 3.06312 1.46847
8.98477 4.41437 2.45628
9.65343 3.41448 1.82755
13.0319 4.07029 2.01155
11.5869 3.99042 2.25096
14.2108 4.62663 2.25616
12.487 3.69039 1.71699
14.25 5.16101 2.96861
12.1283 4.75979 2.63686
9.99171 3.74295 2.15899
11.5389 5.47269 2.75361
11.4037 4.05574 2.21044
9.74657 3.92511 2.00937
7.86132 3.22453 1.98483
12.976 4.32322 2.29831
14.5418 4.53917 2.63343
13.6797 5.20947 3.13634
13.1282 4.6555 2.31261
13.4465 5.51276 2.92348
10.3385 5.47582 3.01309
11.3523 4.17416 2.60509
10.9474 5.0709 3.10101
14.2727 5.46319 2.99559
11.724 5.19364 2.83297
10.0488 4.54188 2.86576
12.1328 4.81728 2.87313
8.44718 3.39848 1.89109
12.5804 6.67555 3.91504
10.2624 3.51868 2.17227
11.3002 5.16398 3.02031
10.0037 4.3182 2.64856
13.2112 5.67735 3.2337
8.17511 3.23228 2.02495
9.15979 3.80142 2.24082
11.9949 6.34999 4.0249
8.28943 3.21241 1.97532
9.59887 4.55511 2.85824
9.44719 4.90179 3.08456
10.599 4.75741 2.87008
10.4547 5.39617 3.41757
11.3525 4.56526 2.938
9.25829 4.32573 2.88241
7.42192 2.8655 1.85669
9.72137 4.89148 3.03264
9.80358 4.36483 2.69832
9.31673 3.32958 2.0362
11.7769 6.42395 4.32073
11.1299 5.0695 3.38351
10.5736 3.84677 2.62596
10.5695 5.37292 3.71556
8.15293 4.6576 2.99827
7.44175 4.31297 2.79585
9.38967 3.89484 2.23671
9.41249 4.88743 3.28195
7.64119 3.66265 2.42346
8.23851 5.17523 3.84363
9.31312 4.3329 2.81274
6.16891 3.06203 2.38328
10.0011 5.12659 3.74595
7.93873 3.64628 2.60946
7.14841 4.37157 2.82899
7.09775 4.1897 2.76147
8.43302 4.95534 3.51374
8.43978 3.98589 3.04177
10.1485 5.43017 4.28463
14.735 6.6924 4.39697
10.1214 6.57575 4.87143
11.9435 6.547 4.98132
9.63099 5.31879 3.91933
7.23953 3.47064 2.42495
7.98759 4.15808 3.13609
6.40784 3.49316 2.49905
9.48685 4.74017 3.09538
7.00252 3.42182 2.55666
11.4875 6.10835 4.17316
8.64811 4.64672 3.56016
8.66589 5.81257 4.01546
8.1477 6.55616 5.5717
7.08494 3.25989 2.51434
8.44022 4.56292 3.35164
8.25538 3.80109 2.99845
5.81116 3.74738 2.83433
9.24091 4.75539 3.64048
6.36455 4.5819 3.46427
6.24959 3.64973 3.15894
10.0056 5.43579 4.14926
8.3872 4.21336 3.36181
8.16619 3.86323 3.10742
7.33585 3.38205 2.68167
6.43147 3.67107 3.61803
10.1892 4.4909 3.35278
8.82071 5.33841 4.01679
9.06399 5.06877 4.55887
10.3253 5.37385 3.63165
9.58566 6.53186 5.61016
7.64944 4.74891 3.76858
6.62443 3.33922 2.72219
5.58524 3.70788 3.77591
7.93675 4.95577 3.79838
7.44941 5.77764 5.10791
7.97804 4.33451 3.27743
7.35095 3.89638 3.53328
6.25601 4.42287 3.4217
7.50321 3.75601 3.32461
7.67926 3.99498 3.35259
6.33098 5.02939 4.22113
8.35389 5.66189 5.19278
7.25901 4.64543 4.27118
9.76204 5.40753 4.07568
8.01117 4.7803 4.51593
7.79587 4.27132 3.74794
8.00698 5.22613 4.6871
6.74397 2.8065 2.71525
7.58978 5.30991 4.69574
9.16155 6.05787 4.80681
7.7225 5.83743 5.23257
5.86805 2.75498 2.7541
5.80282 3.46806 3.11515
8.73022 4.80255 3.98111
7.44353 5.09629 4.18137
5.58037 3.53828 3.35926
10.3299 6.03431 5.5021
7.85713 6.1973 5.3997
7.04418 4.47534 3.92801
6.09776 4.78547 4.32083
6.29504 3.80085 3.53967
5.64252 4.39731 3.84055
6.95995 4.03791 3.60165
7.38872 5.0393 4.95359
6.48702 4.08784 3.89795
6.87408 4.83987 5.34709
9.98364 6.29714 5.47259
5.5405 3.86624 3.8746
6.27098 3.40851 2.96343
11.713 8.12462 7.49516
4.37454 3.09758 3.37746
7.04864 5.73159 5.9712
3.66782 2.67761 2.78611
5.08802 4.63351 4.95301
5.95893 2.75356 3.19485
8.13688 4.22312 4.10788
7.28967 5.65724 5.21145
4.8791 5.11923 5.12867
7.91273 6.14774 5.83375
5.62634 3.60759 2.87579
6.74375 5.77385 5.89311
7.13201 5.70258 6.14425
8.46873 5.65282 4.97609
7.22723 5.06327 4.88844
7.80246 4.965 5.26681
6.26198 5.01095 4.88129
3.29632 3.13878 3.88698
8.63447 5.30193 5.1772
6.43083 5.39976 5.76729
6.30477 4.09836 4.32825
5.14684 3.97086 3.70547
5.95655 4.48788 5.84072
6.68774 5.48537 5.22232
6.39619 4.71336 4.37625
6.83479 4.28469 4.94015
7.40523 4.43926 4.2878
6.27286 4.7675 4.78376
5.65052 5.79563 6.79068
7.7252 6.08572 5.84502
6.44606 3.8013 4.28612
5.92295 5.32765 6.27303
5.21126 3.71662 3.56881
4.94339 3.69831 3.64844
5.05888 2.81434 3.44406
5.00362 3.46289 3.80301
5.28931 5.22502 6.57554
6.05497 5.16152 4.71872
4.24999 3.9271 4.51218
4.21614 4.26148 5.14475
4.69855 3.41465 3.59743
5.02413 4.18983 4.19989
6.4067 8.0094 8.14305
5.35224 3.66253 4.2634
3.89872 2.76361 3.69667
6.54981 5.97271 6.74657
4.57704 2.90248 3.75768
6.61169 5.67734 5.0273
4.54296 4.52871 5.76525
6.02666 5.07671 5.48085
6.61789 5.843 7.69491
6.13761 4.1826 4.45195
5.03667 4.23892 5.23478
6.24324 7.29071 8.45003
5.39762 3.73365 4.56709
5.86435 5.74125 6.49865
7.23621 5.13402 6.63958
5.36284 3.51814 3.56732
4.15121 3.35835 4.21015
4.5413 3.18641 3.70024
6.02965 5.40646 6.30155
5.04215 3.72277 4.80049
4.78319 4.67157 5.46794
4.05731 4.36912 5.33357
5.95334 5.22896 6.57124
5.83685 4.59475 5.55318
5.44038 5.02259 5.76475
4.41873 3.47942 4.13325
4.01879 3.48394 4.79569
4.99022 5.3713 6.44047
4.84919 3.39181 4.59813
6.71068 6.8391 8.10836
5.56718 4.1536 5.35202
4.81811 4.61326 5.57236
6.28008 4.64616 5.30168
5.02317 4.40934 4.95158
4.91449 4.63086 5.42037
4.13424 4.50711 5.41198
3.29615 2.71434 4.34664
6.38719 6.05078 8.06482
5.71808 5.58465 7.18979
5.74858 5.48886 6.6558
4.67734 4.34761 5.63786
4.00331 3.76049 5.22009
5.67919 5.13828 6.65195
5.53137 4.46411 5.40704
4.78597 5.67472 7.79563
4.6938 4.55681 5.94973
6.14798 4.87953 5.98133
3.93016 3.42766 4.70966
5.39316 4.92919 6.32326
4.73496 4.1463 4.88536
3.59276 4.14011 5.68096
5.02084 4.90059 6.46289
5.23245 4.44747 5.74857
4.6385 3.70622 5.23131
5.82135 6.15436 7.69665
3.66755 4.31362 5.81408
3.97901 3.31226 4.54644
4.04141 3.59776 5.57175
6.40003 5.5022 6.40724
5.4839 4.87222 6.34402
3.98772 4.24957 5.83886
4.51845 4.06196 5.52343
5.12227 4.29983 6.21488
3.81749 4.12652 5.7525
5.50439 4.41423 5.67478
3.65198 4.72553 7.64106
7.05112 5.53726 6.61521
3.63815 4.31775 5.84729
4.89139 4.19943 5.87275
4.56046 5.16133 6.58536
3.83181 5.19377 8.6244
5.6017 4.27575 5.40909
4.12711 4.96992 6.0195
3.85435 4.50337 7.74143
6.49081 5.04608 6.28792
4.19514 5.1741 8.65158
4.15596 3.88919 5.76146
5.63657 6.84969 9.71424
5.00337 3.74859 4.34526
3.41971 4.789 6.60054
3.5848 3.06273 4.26621
4.38686 5.36625 8.92578
5.00744 4.76784 6.57403
4.35738 3.92416 5.92776
4.10156 4.41859 6.60166
3.06734 3.79772 6.92959
6.0555 6.10046 8.26361
5.6536 6.03666 8.32522
6.34973 7.51937 10.2016
4.27676 2.74346 3.77904
3.80167 4.15608 7.0582
3.60992 4.74186 7.54362
6.10534 7.94631 12.0407
5.01515 4.55165 6.33824
3.63703 4.92914 6.85752
3.05165 4.21143 7.94023
4.60159 5.41501 7.5308
3.47113 3.56842 6.39306
4.34572 4.5873 6.53885
2.6996 4.51821 8.03347
5.11117 4.42028 7.35654
5.25673 4.38816 5.39691
5.92784 5.89385 7.82681
4.03663 4.39642 7.57484
5.71672 5.11281 7.37117
3.57603 3.39817 4.32604
4.55135 4.77635 6.10333
5.58131 6.41541 9.92321
5.37075 6.2415 9.34337
4.21747 4.0885 6.86348
3.27553 3.49955 6.12223
3.24452 4.36576 6.54736
4.23598 4.22128 6.19414
6.20258 6.31107 8.7873
4.74236 6.54549 10.6961
4.62809 4.90808 8.52384
5.63823 7.20967 12.25
5.55051 5.08269 6.91835
5.83413 7.48419 13.3785
4.00874 5.3019 6.71172
4.51141 4.96102 8.02327
3.09668 3.40852 6.30793
3.31053 4.12948 6.9542
3.69679 3.49249 7.03591
5.36422 6.42229 9.28367
4.95849 5.60744 7.35128
3.53715 4.33669 6.52474
4.43229 6.60241 12.1833
3.80819 4.13347 6.27196
4.0135 4.65308 7.21013
3.64215 3.90537 7.1262
2.85424 4.32076 8.28878
4.28738 4.74003 7.69651
2.58014 2.80153 4.09166
3.02291 5.46808 7.70596
2.74942 4.14238 7.12303
2.8524 5.15348 9.72481
4.40254 6.53755 10.7475
4.00095 4.11087 6.38923
2.18073 2.60048 5.07515
2.76166 3.12178 7.22405
4.7532 5.42785 9.57623
4.05168 6.48356 9.18789
3.7909 7.22015 13.0877
4.49576 3.62513 5.14428
4.01727 5.53538 10.724
3.41711 4.3479 7.53437
4.48168 4.5145 7.42828
3.52911 5.42956 10.9568
5.70316 7.18984 10.0941
4.16798 6.02832 10.6674
3.61277 3.89326 7.26532
4.88289 5.48946 9.13074
2.42622 3.33116 5.75614
3.61977 4.5427 7.35678
3.83703 5.27956 9.39746
4.06815 5.45384 9.89326
3.86223 5.28846 9.73967
3.63855 5.04639 9.20401
4.49309 5.29044 7.78333
3.88024 4.09299 7.25934
3.80119 5.5727 11.3349
3.79567 5.58554 9.00398
3.64017 5.03396 9.08826
3.52926 4.20853 7.19196
3.84601 3.60312 5.58929
3.2295 5.94579 10.6822
4.40499 6.26183 11.9581
6.14339 7.94872 13.8572
4.20693 6.45431 12.5628
3.92139 5.19118 8.6078
4.43428 4.8583 8.44385
3.59233 5.20582 10.8214
4.20018 5.22723 8.76464
3.42218 4.1404 7.51497
3.8716 5.8786 12.3097
4.50202 3.53175 4.20281
3.35985 5.3085 9.46497
3.3334 3.41624 7.00019
3.6963 5.49414 10.7946
4.92404 4.91245 7.56156
3.10793 3.77902 7.21929
3.62778 5.42237 10.4437
4.19257 5.63911 10.5985
3.88842 5.55617 10.5574
2.97089 4.15708 7.34852
2.94492 3.35688 5.964
3.10677 5.62819 11.3654
3.51259 4.55052 9.58585
3.82214 5.53637 11.997
3.59881 3.83175 6.36136
4.38175 5.0687 10.0881
2.60063 6.44331 12.5731
4.12552 5.60604 8.54058
3.48194 5.75336 10.4195
2.8164 3.63147 8.06616
3.08531 4.32041 8.09078
2.92367 4.91554 9.2387
3.71546 4.38737 7.93242
4.09533 4.55694 9.3105
2.92465 4.30181 8.66727
3.82833 5.84213 12.7021
4.39094 5.6892 10.5179
3.55721 5.32331 10.41
2.3071 3.34915 6.68105
4.52923 7.14902 15.1445
3.3063 3.32822 7.85487
4.28638 5.62535 8.10757
2.93371 5.85212 10.7207
2.70239 5.59152 10.4548
3.21609 4.87698 9.68243
3.29551 5.37368 12.9103
4.63463 7.28421 13.6497
2.5749 2.97997 5.87434
3.03128 4.68911 10.1021
2.94029 5.64174 11.1378
4.06471 6.33969 12.4355
3.11305 4.90258 9.66997
2.667 4.23812 7.80051
3.02925 3.91111 8.67915
2.33841 4.34089 9.55813
2.83983 5.3177 10.1001
2.46938 3.98687 8.37549
3.19728 7.16394 14.8789
4.51579 6.25737 10.8509
2.1271 3.94764 9.06855
2.57988 3.63682 7.99159
2.82198 4.34198 8.87749
2.67955 4.05666 8.38389
3.07559 4.81221 11.2298
3.99848 8.04376 14.828
3.23515 4.30086 8.14358
2.87083 5.50396 14.6297
3.84802 6.55645 15.7537
6.00282 6.90622 12.1416
3.79144 5.90849 10.6956
2.04896 4.21686 10.8097
3.93429 4.88009 9.37779
2.99397 4.88656 12.7718
3.29491 3.99743 8.83229
3.25004 4.73959 6.66033
2.27534 3.29226 8.77948
3.8537 6.59526 14.2477
3.4084 3.99407 7.9038
3.2868 5.17319 9.09622
3.33059 5.37704 13.7628
2.7946 4.32304 9.16092
2.28959 4.66023 10.0962
3.07962 4.01319 6.98619
2.43751 6.42686 13.5694
3.3684 5.78427 12.9298
2.67421 4.97793 10.8764
3.18359 3.92584 11.2531
3.47505 4.56569 9.11656
2.80838 4.96187 10.5839
2.66076 4.73063 12.2279
4.02448 4.90523 7.85945
3.11368 5.48416 11.8231
2.48116 3.84031 9.1509
3.30039 5.85588 11.8846
2.39453 4.20807 12.1956
3.05712 5.72006 11.4148
2.32051 3.67607 8.18026
1.89206 3.24271 7.90067
3.64621 6.52191 11.5497
2.36186 3.78233 9.85028
2.4028 5.71822 15.114
3.87522 6.79365 15.4018
3.08493 3.44977 9.8385
4.30339 5.3976 9.95544
3.28262 5.67933 9.0912
1.9166 3.86757 13.2184
2.68921 5.25094 10.0836
2.76327 7.18282 15.7281
3.78881 6.49599 14.0206
3.06506 6.88365 14.6687
3.13704 4.79175 11.9152
2.42968 4.56815 10.5392
2.77116 3.62999 9.24273
2.70647 4.79756 12.0766
2.03505 4.25011 10.0613
2.09247 4.52687 13.1416
3.36378 5.00791 9.9024
2.91838 5.03738 13.7716
3.90178 6.89074 13.3986
3.84874 6.50955 15.6227
3.9863 6.56838 14.2801
4.12393 6.88058 15.4813
3.70611 5.71675 9.45849
3.06812 5.43324 15.4636
3.51155 5.99154 12.5584
2.50744 3.46974 9.06448
3.06265 5.10115 11.6408
2.3151 4.11245 8.92812
2.2711 4.9051 13.0379
3.46574 5.66593 11.7582
2.9893 7.62682 18.4185
2.58602 5.47619 12.1366
2.65346 6.00692 16.2356
3.18709 4.1028 9.52972
2.45171 4.16803 10.0511
2.63262 4.56279 12.729
3.13683 4.804 10.7261
3.32975 5.18826 13.0691
2.68694 4.45753 8.85082
3.04846 6.78299 14.9435
2.78262 5.36992 14.747
3.01347 4.00559 12.6738
2.58073 4.48921 9.37767
2.23908 3.62044 9.35491
3.10589 4.72499 12.485
3.08958 5.24377 12.2748
3.45066 5.34439 11.6154
2.38415 5.30945 12.5885
2.41012 5.16341 10.5192
1.84005 4.20593 11.9404
3.28136 4.8956 12.4342
1.97137 4.03186 13.0292
3.5384 5.43734 10.709
1.87061 3.21568 9.84459
3.40676 6.5401 13.6466
2.47867 5.24007 14.8546
3.39248 6.52263 11.5872
2.23022 5.2645 12.6882
2.2936 4.13914 9.01558
1.93314 4.19353 14.7053
2.63322 4.13385 12.6541
3.6835 7.3389 15.6284
3.06129 6.35281 11.9381
1.85603 5.47831 15.4674
3.04542 4.90732 11.7092
2.95073 4.76689 12.7123
3.10748 4.13003 8.27898
2.30857 5.23597 11.3006
2.01685 5.19867 13.7521
1.97521 4.52068 16.0413
3.52533 5.41862 10.021
2.78539 4.10354 9.70969
2.37715 5.27904 14.4349
3.44623 5.52299 14.1904
2.48381 4.37731 10.9581
1.98314 5.0809 15.9774
3.60718 5.61978 10.9746
2.16215 3.89707 11.2843
2.16122 5.08766 16.7732
2.43843 5.24886 14.1287
2.5902 4.46687 10.2332
3.3503 5.91225 17.41
2.69964 5.96513 13.3033
2.23601 4.53586 10.6175
3.13198 7.25915 17.9526
2.26156 4.43651 15.1446
3.34789 8.56955 23.0496
4.46496 6.7909 12.7682
3.50836 6.6205 14.5354
2.07693 7.02414 19.991
2.54093 6.86493 18.9684
3.1378 4.93513 12.4765
2.15035 3.75667 11.2504
2.37472 6.14994 18.0976
3.33041 6.20015 13.4036
2.68661 5.06177 14.8764
2.85915 6.02639 18.2569
3.21582 6.38203 14.4018
2.60593 4.4239 9.24596
1.8214 4.09738 13.8646
2.59507 5.38985 18.0526
4.35429 6.77885 13.7763
2.54104 5.47333 11.8873
2.11827 4.716 13.9192
2.54909 4.80778 11.9749
2.48405 3.75437 13.5721
2.73899 5.28296 10.8467
2.2611 6.20719 21.3562
2.88366 6.39906 18.3904
3.29317 6.7575 17.9316
2.76822 5.67616 13.0731
2.9264 7.60386 19.1733
2.68782 5.18739 14.7809
1.70461 3.60504 11.9221
2.73063 5.73075 15.2998
3.12564 5.58532 10.5085
1.77316 4.44042 11.3489
1.809 4.40721 14.1628
2.7356 4.60509 12.0375
2.00434 5.74169 19.8852
3.41622 7.80363 22.8578
3.73381 6.89932 16.0341
2.88476 5.52568 15.5163
2.68282 8.15936 22.5834
2.6697 6.03337 14.4436
2.32791 4.01567 10.9626
2.03074 5.93951 23.7833
4.09048 7.8028 17.0321
2.09306 5.80535 13.2158
1.6084 4.04371 13.5005
1.92777 3.59621 12.3797
2.0815 4.79284 12.9217
3.21661 6.46365 18.2719
2.78024 4.68821 13.8767
2.8638 6.03277 15.7694
2.50995 6.35917 20.7406
3.65837 7.38921 15.6541
2.09115 4.21597 11.1431
1.94519 6.97091 20.6419
2.65085 4.13159 11.4349
2.9263 6.64765 14.8133
1.88638 4.40734 14.5117
2.81296 6.13056 17.0094
2.3815 5.7551 18.8013
2.07115 5.05762 14.9603
2.35003 4.77975 13.6784
2.89681 5.23815 19.1331
2.70047 5.47755 10.904
1.3315 4.36032 16.7428
3.30136 5.81293 14.7751
2.27566 6.18967 18.7947
2.58733 5.19936 10.2051
1.30322 3.33801 9.47701
1.88281 3.56684 10.9491
1.81218 4.6689 14.85
2.1676 3.75442 15.8125
3.43504 7.25247 17.8114
3.02874 6.701 15.8528
1.7793 6.11516 22.7177
3.52433 6.12475 16.6682
2.60105 6.82589 17.0712
2.41242 6.08756 16.0779
2.63788 4.88318 14.3339
2.61549 5.28895 14.1716
1.97563 5.67403 17.4618
2.61302 6.54443 19.8021
2.77575 4.18611 14.0638
2.77568 5.49197 17.4564
2.45184 5.71392 15.9535
2.31812 5.58477 18.9749
2.51397 4.68931 10.4052
1.98088 4.57578 15.846
2.5333 5.51471 14.564
2.45463 4.65913 16.5379
3.24272 5.51173 15.1424
3.08694 6.81679 21.032
2.82539 6.28124 15.4862
2.42278 4.60891 10.3097
1.37124 5.48303 17.8047
2.0708 4.47436 14.874
2.60101 5.08287 16.4268
2.09443 4.36698 14.7742
2.14164 5.2229 18.6949
2.51499 4.27723 12.2195
2.6569 6.72149 17.0876
1.86365 5.48034 18.8723
2.442 4.02506 13.192
2.49447 5.96971 17.8104
3.55802 7.2377 21.4014
2.71636 5.7766 13.1922
1.87498 5.16228 16.1502
1.38809 3.63847 13.8668
2.51572 6.35028 14.6314
1.86315 4.76952 20.8314
2.75655 5.0954 13.717
1.5586 4.28694 10.9956
1.82206 4.24289 13.6632
2.06205 5.46802 19.5906
2.97035 6.07128 15.206
2.04694 4.94287 17.2372
2.51194 4.25445 15.6889
2.4595 5.31244 16.2026
2.53699 4.64302 13.3424
2.01869 6.5852 17.0775
2.3849 5.07225 18.5929
2.99521 5.13333 13.4237
2.44598 5.05893 16.4137
2.0338 6.29352 24.0949
2.56846 7.22445 16.3528
2.08145 4.5197 16.7584
2.6241 7.37654 20.4171
2.46284 5.98681 18.7628
2.54873 6.57509 16.3702
1.60299 3.63061 14.0274
2.60638 4.1963 12.1834
1.94091 4.909 15.307
1.79771 3.55437 14.1879
2.06984 6.20047 17.3689
2.34398 4.07769 14.4936
2.61147 6.76315 17.2825
1.83391 6.33212 20.0226
2.45219 4.87892 18.2121
2.57642 6.44849 19.1812
1.73268 3.91759 11.093
1.98609 5.1829 18.6819
1.99216 3.40438 17.8084
3.45799 7.97578 22.2023
2.78817 5.15124 12.9971
1.40268 4.22372 14.0788
2.38552 7.02903 22.9699
2.41143 4.45973 17.1155
2.44122 6.19826 17.5059
1.83899 4.38637 14.2602
1.78514 4.06251 12.7049
1.93187 7.656 24.568
2.86457 6.76904 17.3082
2.01785 5.50274 21.0474
2.60891 6.61539 19.1529
1.84726 3.64708 12.4574
2.4487 7.10975 26.0933
3.04632 5.79504 14.3543
1.87876 4.68675 11.4212
1.41915 2.84229 12.6998
2.21805 6.06653 14.6316
1.69255 5.61766 18.8766
2.17115 5.36021 14.9691
1.95646 6.83272 17.2034
1.48942 5.51063 24.1163
2.82629 4.72565 17.2225
2.79221 5.15258 15.9366
2.06382 4.29613 16.659
2.90536 4.98096 15.7426
2.19702 4.32189 12.5518
1.83921 5.01174 16.7674
2.30829 3.95748 12.7275
1.79672 2.79882 12.6147
2.66692 6.94871 19.2236
2.79809 7.1684 17.7201
1.87296 3.85735 16.4133
2.52939 7.27454 18.1852
1.63994 4.45436 15.877
1.99199 4.45941 16.0544
1.70442 5.11749 26.9987
2.85642 6.78185 14.938
1.59533 4.70628 14.6502
2.19904 4.18289 16.0273
1.5321 4.86172 16.1041
2.17828 4.63992 13.2647
1.8129 4.78479 19.9646
2.03699 3.72795 13.1902
2.49671 6.42058 23.5904
2.72105 6.82427 14.3369
1.53504 5.13446 18.9469
2.19536 5.32667 16.6749
1.96893 4.12072 12.2093
1.71632 4.77033 17.1535
1.88614 4.21638 14.0099
2.01098 7.23624 25.1553
1.99006 4.62082 17.0718
2.81915 6.47337 19.5313
2.05882 5.99342 27.8315
3.55801 7.58678 17.2611
1.64616 3.83181 14.6252
1.80632 4.12179 20.7793
3.12562 8.15359 19.1065
1.49774 4.83672 15.233
1.82231 4.83866 21.2305
2.47557 6.27046 24.186
2.61388 6.22906 24.5001
3.25608 7.6807 19.4156
2.22221 4.37358 17.175
2.73394 8.0233 28.3905
3.10019 6.16496 15.4849
2.00605 4.59344 15.1492
1.60122 6.49801 25.0523
2.43287 5.28528 18.4662
1.89586 5.03008 19.1253
2.49575 8.41678 23.8672
2.88208 6.07352 17.2396
1.75099 5.81754 18.2694
2.15677 3.98784 16.2983
2.20799 7.89144 21.5676
1.95965 6.87038 31.4984
2.72661 6.29445 19.0463
2.03709 4.51205 16.1529
1.74509 5.50349 23.4195
2.46525 5.29807 16.447
2.76049 6.50229 22.9634
2.02119 5.08052 10.3405
1.40601 4.63452 21.2945
2.13418 5.43503 19.1314
1.97376 6.11703 22.8389
2.36926 5.84382 16.9753
2.16686 7.57032 25.5595
2.95788 7.15282 26.3169
2.29598 5.69748 17.2296
1.50071 4.58689 19.791
2.35904 6.78633 18.2252
1.95399 5.34752 22.9632
2.1818 5.73019 20.5502
2.1865 6.84029 17.7561
2.1123 6.06229 19.6682
2.03279 4.53639 16.8734
1.88159 4.98547 13.6325
1.78389 5.54472 19.9095
1.58704 5.57409 22.2619
2.183 5.15803 18.7267
2.48203 6.70327 21.0707
2.23761 4.5918 15.6597
1.73643 4.40867 14.3106
1.59898 5.52508 19.9646
2.01819 4.84611 22.0841
2.41792 5.25388 12.3356
1.73256 6.219 27.6278
2.641 7.28161 20.4847
1.65317 5.42598 13.7923
1.44593 5.20172 21.7634
2.1718 4.27914 10.5907
1.37524 4.20884 19.9603
2.22414 4.81752 26.5755
2.61061 9.08882 29.2362
3.03082 7.4402 19.3044
1.55912 3.19242 12.7098
1.64067 5.15265 23.9287
2.57615 6.07805 19.4519
1.99689 5.40706 17.7614
2.25919 7.25822 18.1456
1.3121 5.23616 22.4104
1.85735 5.48313 27.7819
2.0523 6.63169 17.3266
1.79872 5.60486 18.2622
2.1864 8.66424 29.0236
3.00657 5.47416 20.8486
2.22825 3.99089 14.8822
1.61813 6.85201 23.1531
2.28522 4.86358 17.6372
2.26299 5.10539 16.1936
1.75477 5.86713 21.6198
2.01228 5.06245 15.4962
1.66127 5.01487 19.4792
1.70083 4.85521 21.2188
1.90874 4.64779 12.4352
1.32014 3.42413 19.0544
2.13453 5.32284 23.4069
2.47966 6.56327 14.1575
1.40186 4.86312 16.4679
1.83755 4.19613 18.9252
2.20492 5.52249 20.0285
1.88988 4.96992 16.7756
1.65219 5.88873 23.3099
2.5379 6.39818 23.998
2.01982 6.3886 19.2399
2.28224 5.12747 16.5359
1.6341 4.69571 27.6734
2.56881 5.66028 11.2286
1.78324 5.37377 24.9665
2.58259 7.12155 25.0183
2.2838 6.17791 27.0664
2.69196 6.7544 22.9577
2.37492 7.66697 24.2516
1.70174 4.68914 17.5101
1.85636 4.60446 23.4158
2.23292 8.23244 29.267
2.46027 7.71865 16.7511
1.31202 5.55694 15.4673
1.48691 3.42099 19.2278
1.98434 4.7816 18.2686
1.92052 5.27497 22.1717
2.15905 4.8333 21.3577
2.19456 5.31312 28.5664
2.66496 6.02546 15.4772
1.76189 6.62672 15.4096
1.83587 5.55248 20.7414
2.53738 5.35938 22.5747
2.20621 7.7144 28.7615
2.70735 6.47477 19.6031
1.77189 5.0573 20.5856
2.00562 5.26483 17.5831
2.06385 8.03502 24.9557
2.01968 6.06173 30.3548
2.76592 4.93435 21.8161
2.14974 4.65918 15.9063
2.18433 5.45244 19.8265
2.05616 7.15831 17.3379
1.34767 6.81749 34.3067
3.17665 6.42558 23.984
2.58456 4.86704 17.0032
2.20018 7.85063 24.7434
2.35671 5.20652 20.677
1.98234 8.22452 24.3666
1.90139 5.22769 23.1117
2.46262 4.9631 16.8732
1.57122 4.70726 20.7705
2.07138 5.73583 15.1296
1.38973 4.46082 23.199
2.63677 5.71713 14.8112
1.51859 4.57381 27.8598
2.61137 6.11466 16.9902
2.0495 7.92826 23.0709
1.69196 5.83759 20.8987
1.57248 5.40301 19.3748
1.54459 4.85155 17.5588
1.83199 3.6789 22.6871
2.4278 4.41915 16.4397
1.40133 4.36334 19.6273
2.02139 5.89779 24.2539
1.77184 5.41372 22.2303
2.34435 7.3116 25.0261
2.54159 7.80019 27.617
2.33016 5.63127 21.3668
2.0519 4.24124 20.7169
2.4085 4.90213 14.2474
1.4174 4.88065 20.4496
2.11635 7.6312 25.0639
2.15839 5.45553 17.8313
1.97413 5.6457 22.9989
2.01764 6.23908 24.1911
2.14827 8.21591 24.1143
1.90428 7.07476 34.6114
2.97927 5.36915 19.0059
2.00833 5.2342 18.2122
2.17213 7.45484 23.3738
1.80273 5.37743 28.6015
2.20152 6.25608 21.9025
2.05724 6.03848 17.1125
1.7169 4.96851 19.401
1.77534 5.69326 22.3804
1.87331 4.94835 19.647
2.08283 5.2318 17.2735
1.64518 4.11909 18.5191
1.84665 5.34473 18.7929
2.0212 7.10294 31.307
2.73026 5.95782 22.6914
1.74806 5.37144 16.5631
1.71057 5.92382 26.5269
2.10884 5.62971 19.1845
1.98061 5.50911 21.7617
1.88526 7.79828 26.0292
2.2728 5.87018 19.5541
1.86534 6.92418 29.0661
2.51591 4.75685 20.48
2.20578 8.13478 25.3811
1.53925 6.55322 20.3114
1.97018 5.08862 18.4412
1.2114 6.16597 36.0644
2.23535 4.56579 16.8346
1.65327 4.51621 24.0969
2.40851 7.30449 21.8022
1.64634 6.4278 25.4337
2.09255 4.43546 17.3226
1.75416 6.17122 21.9445
1.61083 5.93016 19.4173
1.4985 5.17798 26.2668
2.17654 5.65849 19.7855
1.94541 7.27069 29.3327
2.37068 8.69056 20.1381
1.80075 4.66753 12.7262
1.24745 4.57 21.9899
2.06827 6.86722 26.8504
2.47026 6.92173 30.2875
2.33133 6.41127 24.569
2.12207 4.10006 21.5023
2.03835 7.39068 21.5779
2.0332 5.14329 17.7906
1.25366 4.53701 24.8433
1.66306 7.83375 18.5431
1.58701 3.6703 18.3017
1.63989 5.39781 22.447
1.98186 7.17714 24.9715
2.28172 6.46434 31.1937
3.05155 7.70331 23.5172
2.12397 8.68333 29.8715
2.54464 6.1246 31.0897
2.14997 4.71282 15.8593
1.84782 5.65945 18.0178
1.69094 4.1258 17.2119
1.65396 7.20031 32.4643
2.83071 8.70926 30.6124
1.98113 7.51344 30.682
2.71674 6.85864 33.8912
2.93184 9.0548 24.4054
1.78684 6.05527 23.3875
2.08181 6.79924 40.168
3.38842 9.94644 25.2981
2.09676 4.22335 22.4297
2.01181 6.09052 26.99
2.77887 8.6196 30.4995
2.54097 6.12702 24.2968
1.99968 6.39347 23.4832
2.15375 4.67873 26.9135
2.05631 6.835 20.5046
2.06615 5.2835 21.5369
1.92276 5.84292 26.214
2.34713 9.14694 24.0079
2.09218 4.79427 16.8164
1.56677 6.62721 28.354
2.17638 5.14803 17.9923
1.47902 5.3699 25.1818
2.01784 4.76572 19.5299
1.70408 5.34462 26.7486
2.46511 6.21943 19.6864
1.9359 4.74424 18.6657
1.61641 4.49649 15.8359
1.52426 4.81218 25.8044
2.25493 5.65708 19.2476
1.73824 4.7905 17.8233
1.77702 6.11431 22.1796
1.97059 5.79307 32.0472
2.62952 5.44689 19.9811
2.024 6.98601 24.5695
2.32591 5.9306 19.7384
1.35341 4.36988 17.0552
1.58482 5.60963 29.1012
2.43811 6.58235 24.5534
1.73509 5.53861 21.1281
1.81568 6.40801 27.2788
1.80005 6.02648 18.3696
1.74147 5.06424 21.0762
1.68894 5.0111 26.0934
2.3897 7.20601 23.5946
1.99258 6.33956 21.0683
1.80101 6.24859 25.0059
2.27346 5.02769 20.8169
1.96719 5.70561 23.4245
2.00178 6.78195 31.5608
2.63536 7.35958 16.7361
0.923813 4.19147 19.842
1.75507 7.85266 35.3788
2.55307 5.83345 21.6604
1.90524 5.66924 20.7751
1.68498 4.47655 20.5597
1.66475 5.69087 17.1039
1.48141 7.45745 31.2628
2.66124 7.16188 29.998
2.39262 5.59104 25.0919
2.02104 6.75743 27.3591
2.38961 4.17527 17.3185
1.56875 6.30784 23.9468
2.24265 5.44616 22.1584
1.52836 4.96076 20.2884
1.69065 5.68358 17.9337
1.62488 5.21232 21.9751
2.0088 5.70549 15.0689
1.31846 4.55438 28.6114
2.24022 5.14341 25.1553
2.1511 7.15125 21.3803
1.485 5.4268 32.4437
2.67999 7.579 21.8389
2.09771 7.2896 23.2804
1.6835 7.35939 20.4381
1.68645 6.12096 27.5579
2.40644 5.85673 16.396
1.57124 3.45178 16.0804
1.22719 4.37709 22.5323
1.60063 5.6527 22.2829
2.00264 5.9319 29.6846
2.44435 5.5802 13.9017
1.47414 4.10319 21.3377
1.43014 4.2928 20.6538
1.63595 5.70439 17.7231
1.4198 4.96601 14.7715
1.34744 4.80003 17.8273
1.65561 4.03336 24.6951
2.07978 5.17085 12.2078
1.38718 4.38046 23.2138
2.15403 3.65703 26.3107
2.38024 6.54418 23.2812
1.76072 8.14337 27.7695
2.37033 5.30003 17.3567
1.40369 4.97515 15.4554
1.78268 4.40985 21.592
1.9579 6.57827 23.1899
1.85369 5.59359 20.2169
1.64813 5.23464 28.1081
2.31428 7.09708 30.6822
2.87014 6.51585 24.6474
1.6182 5.61309 23.0124
2.20656 7.50935 23.0039
1.63109 5.62253 19.1659
1.40957 4.8704 27.7968
2.1062 4.89174 15.9948
1.35808 5.65519 24.6944
2.2054 5.9217 22.5009
2.1676 9.80688 29.7163
2.07265 5.20352 22.4752
1.37033 3.81796 13.7527
1.04974 3.16814 16.1329
1.35006 6.20392 24.5976
2.29705 5.30735 22.3588
1.93268 6.63253 28.4459
2.07418 5.0148 22.408
1.87442 6.45275 28.8721
1.89266 5.16035 23.502
2.02819 6.18512 25.1575
1.63836 5.20497 20.3085
1.58002 6.5564 23.8611
1.8241 5.71447 17.2858
1.65926 7.3556 28.6406
1.86925 4.02305 20.6534
1.79237 5.98935 25.6808
2.52361 8.33275 39.8061
3.02563 9.15469 20.3285
1.9639 6.12471 33.7437
2.438 6.93473 37.6897
2.26402 9.48607 23.9897
1.69313 5.64118 18.9154
1.57083 4.76678 20.7711
1.64912 5.34774 16.9104
1.70012 3.33509 18.6922
1.79231 6.19044 27.2789
2.34481 6.23453 28.5506
2.07137 6.93612 23.9561
2.00033 4.46517 19.1953
1.6935 6.8622 29.374
2.36418 4.8978 24.0159
2.3691 8.73081 19.497
1.65788 4.73013 25.3905
1.852 7.37741 27.7647
2.2982 5.26869 16.643
1.77805 7.75529 29.9531
2.55778 5.07433 27.4348
2.33395 6.9834 26.1263
1.69086 6.16502 25.7214
2.01086 6.3131 22.0145
1.74102 5.40887 15.6129
1.51849 3.32024 18.8873
1.35775 4.94735 18.9558
1.45939 5.56166 22.0861
2.24288 6.70396 27.5457
2.22569 6.08148 24.7955
2.05544 9.56681 35.2692
2.88799 5.75666 25.4917
2.08708 7.50767 34.504
2.22326 6.65419 26.07
2.23924 5.34215 20.1456
1.47989 5.60039 21.4353
2.08603 7.1518 35.6726
3.28078 8.80808 20.4488
1.57705 6.04042 33.1875
2.6348 7.14309 24.8885
1.99022 5.29273 24.595
2.12077 6.39085 33.8267
2.1853 7.76009 19.8859
1.93596 4.90801 11.9993
1.0783 0 0