# pn-170911/RbIIA-37-TWTF-1280-1959.psd
# Power spectrum* (dif=0,1,2) (really just |FT|^2)
# NOTE: only the first half! (symmetric)
# weeks: 1280-1959
# 4 clock-days, 0 excluded
# PSD: 1441
1437.86 0.142786 0.00213969
36657.4 3.2198 0.000907246
628030 21.5785 0.00144035
177037 4.00834 0.00148508
68939.8 1.76639 0.00108028
22457.8 5.21409 0.00167128
21797.5 1.1833 0.00151819
34870.2 2.35569 0.00147635
20069.4 2.04431 0.00208362
20889 2.50352 0.00132907
11003.1 2.46658 0.00174522
8531.75 2.35898 0.0021419
5920.99 1.74565 0.00225044
4388.3 2.62469 0.00394801
7931.21 2.51604 0.0014511
2951.07 1.55639 0.00258863
2691.93 2.35476 0.00539613
3781.98 2.73576 0.00787985
4782.66 4.34196 0.0103282
1780.26 1.80514 0.00434321
4105.46 4.26846 0.00773289
2732.92 2.74094 0.00493225
1939.95 1.18146 0.00408317
1904.25 2.11095 0.00687
2721.31 1.78458 0.00528441
1245.6 2.10549 0.00543836
1634.88 3.64731 0.0153679
873.941 1.56365 0.00552834
1322.38 2.61541 0.0124475
1616.98 1.79055 0.00912133
448.266 1.33339 0.00535863
987.17 2.64596 0.0157626
799.945 0.77936 0.00674342
1156.02 3.04054 0.0162998
420.278 0.752138 0.00501699
855.484 1.89325 0.0116499
910.017 2.11871 0.0127089
1093.92 1.34889 0.00910969
621.401 2.62979 0.0166882
505.851 1.38461 0.0106529
546.434 2.47238 0.0227601
747.057 2.24034 0.0183738
394.102 1.20957 0.0102173
739.046 2.9742 0.0316648
335.602 1.06186 0.00804306
439.902 1.47053 0.0174382
568.062 1.57167 0.0148877
534.786 1.97746 0.0165948
314.666 2.34362 0.0266259
444.091 0.814478 0.0105151
549.088 3.22305 0.0364681
241.602 0.920357 0.00986088
458.331 3.78559 0.0495254
220.764 2.73851 0.0396597
524.296 5.18003 0.0804519
622.29 2.75578 0.0432295
312.264 1.68555 0.0288191
397.203 2.81314 0.0423483
257.439 1.65828 0.0329946
483.774 3.87972 0.0690825
456.056 2.65412 0.0472925
121.729 1.07823 0.0205713
67.8674 1.35256 0.0236528
224.804 1.38113 0.0340106
352.12 2.01395 0.0410693
150.376 1.44352 0.0251321
164.121 1.18989 0.0261305
235.304 1.77204 0.042985
134.264 1.82237 0.0410079
314.26 3.09772 0.0753744
101.284 1.92999 0.0482089
231.605 2.10895 0.0585417
162.284 2.71954 0.06955
144.727 2.1204 0.0537548
155.375 1.24929 0.0329007
117.257 3.17877 0.0954481
295.796 3.00882 0.083335
194.775 3.23246 0.0821572
171.505 1.49817 0.0348186
110.282 2.46767 0.0771882
68.2096 2.70235 0.08598
121.752 2.12215 0.0565575
132.577 1.28061 0.0367914
186.587 2.2415 0.0752645
112.916 0.843932 0.0357354
90.5933 3.41327 0.122778
125.082 2.96816 0.0999429
138.575 1.29974 0.0394854
82.4593 1.31251 0.0519546
318.059 4.58386 0.169407
89.7609 2.65196 0.0993171
81.534 3.58833 0.147322
167.473 2.33065 0.0954595
130.246 2.45909 0.105338
175.154 2.52512 0.0983171
84.5379 2.90306 0.119512
96.8069 1.13015 0.0527074
109.659 0.840256 0.0363693
108.591 3.24466 0.15631
147.393 2.8906 0.14578
161.03 3.15769 0.147698
155.994 2.52455 0.124212
66.9504 1.44743 0.0731743
221.662 4.97658 0.242795
104.172 1.43542 0.079463
82.4575 1.36346 0.0699399
26.5667 2.77452 0.161777
76.8019 1.09261 0.0556214
78.4621 2.82414 0.151149
191.524 4.26534 0.229246
75.3763 1.06378 0.0565795
64.8891 2.74015 0.164667
85.7299 1.10561 0.0729299
72.3059 2.12739 0.120075
37.8886 1.6765 0.104777
57.6512 1.945 0.110252
72.2028 1.48125 0.0878124
100.024 2.50944 0.166701
61.3927 1.52941 0.0929434
59.1464 2.69909 0.185011
73.3041 2.48613 0.164045
54.2535 1.74823 0.125126
86.9741 1.85877 0.119014
81.4362 1.90563 0.128157
63.2791 1.82305 0.12378
77.4861 1.91699 0.133358
92.4572 1.77414 0.134132
84.9398 1.58372 0.12226
63.0341 0.786411 0.0651926
51.2568 1.40784 0.0974585
106.028 3.78716 0.290903
75.8365 2.96396 0.267553
66.8544 1.10352 0.0958723
42.257 1.16781 0.0926425
38.6518 1.39492 0.124484
57.394 2.3803 0.226916
26.9292 0.446172 0.0367701
59.7471 1.15042 0.109313
69.5678 5.97506 0.550232
43.7756 1.11952 0.111647
41.0369 4.04054 0.392826
36.7863 2.61955 0.245321
20.4481 1.27676 0.113397
41.4998 0.908661 0.0809219
39.4404 0.751911 0.0701626
57.3522 1.10599 0.111022
23.7882 1.3324 0.142527
46.2453 1.21561 0.139095
40.5275 1.1627 0.151265
33.9354 2.03442 0.215174
55.2608 2.51747 0.241083
65.3927 1.604 0.173886
30.2704 0.393244 0.0461536
41.0945 1.10299 0.133078
49.4201 2.4278 0.307377
31.9669 5.85267 0.608739
29.5451 2.82756 0.372152
64.0393 2.57879 0.26852
57.6237 2.98779 0.349235
54.2167 5.10526 0.59646
75.6109 5.28763 0.6867
8.48044 1.47229 0.218482
38.8495 1.58106 0.234316
55.4606 2.06581 0.230094
42.8521 2.79857 0.359214
87.9026 4.39996 0.528544
78.3862 3.65159 0.487044
21.5381 2.31055 0.27479
66.969 3.61637 0.451197
62.8905 5.24231 0.764299
53.5542 2.16268 0.320289
19.6562 1.81605 0.226571
17.1987 2.46972 0.373054
20.3689 2.00064 0.341065
41.0203 4.09505 0.502219
71.4044 3.82225 0.53523
46.5752 3.36169 0.465421
60.4485 3.85479 0.615131
25.8826 2.14413 0.39733
24.2055 1.18913 0.126343
31.5163 2.01309 0.286303
36.5665 2.11737 0.346816
51.514 5.83792 0.827457
36.9352 2.08787 0.35876
27.4502 3.66485 0.565018
26.919 2.52371 0.527027
29.1624 2.22835 0.35301
10.4408 0.989244 0.154107
45.7986 4.57086 0.717895
23.6464 2.53786 0.433669
45.7794 2.02619 0.312359
31.9315 1.11101 0.190553
25.9919 3.62408 0.57314
15.2746 2.0615 0.378269
25.9638 0.980909 0.210657
43.7841 3.55881 0.62859
13.4177 1.79375 0.287907
13.2774 2.31282 0.447505
12.1578 2.47394 0.405461
10.3863 0.727548 0.159791
16.5518 1.88514 0.368478
30.2924 4.09006 0.766458
18.3908 3.76619 0.734563
33.2034 2.63345 0.589376
25.8858 4.44984 0.810115
30.5614 2.51021 0.584668
34.5241 1.75479 0.339193
19.5135 1.99296 0.392095
32.3505 2.35332 0.4737
17.0436 2.94815 0.596226
22.6995 1.34172 0.330077
17.2675 1.82363 0.360124
27.4056 2.3909 0.515376
20.7695 1.92185 0.366101
16.6837 1.53707 0.441732
27.9684 2.49827 0.500473
17.9892 2.48054 0.479139
26.3977 2.17249 0.522219
13.3517 1.39439 0.282648
14.3852 1.67317 0.387077
24.302 2.15778 0.509565
9.3767 2.23068 0.488637
19.7729 1.19756 0.333005
18.0637 1.83647 0.42397
22.6767 2.20061 0.639059
13.9357 3.53363 1.0111
28.7722 2.25273 0.502832
17.8349 3.22643 0.766411
19.4207 2.60251 0.49699
21.6173 4.93459 1.20753
23.8274 2.04853 0.472995
27.3437 2.72851 0.7621
22.1706 2.35211 0.549248
15.2818 1.51203 0.358078
19.0354 1.45226 0.377437
13.6254 1.82154 0.413032
21.4669 2.21296 0.59991
23.6598 1.31985 0.342621
19.813 1.62275 0.407672
24.8955 2.50308 0.634317
21.9938 1.47123 0.479059
12.8419 0.455368 0.163913
16.0199 2.98084 0.830122
13.6814 1.77013 0.448482
22.5731 1.20192 0.275524
40.3734 4.76878 1.40151
11.8715 4.4382 1.10243
6.36091 3.16137 1.08903
22.7995 1.9479 0.40099
15.2915 2.27375 0.628678
3.32808 1.38571 0.487559
15.0857 3.35038 0.984971
19.9291 2.93091 0.857
23.995 5.75627 1.69014
9.71962 0.460438 0.227955
30.1775 2.72871 0.713845
29.9545 3.72256 1.13686
10.1463 3.12702 1.19647
14.9142 2.61107 0.660719
14.8317 4.78859 1.36354
15.5245 1.78206 0.629912
32.3332 4.97556 1.49092
10.0379 1.57313 0.409821
25.2653 5.28475 1.84621
11.1973 2.31284 0.68684
26.5315 1.99578 0.590497
4.85932 2.36342 0.766679
14.2732 2.26643 0.889137
15.343 1.65844 0.471017
25.4599 2.01938 0.635632
7.98584 2.86636 0.952455
15.3522 0.529087 0.207527
13.923 1.72065 0.534007
8.95662 0.397424 0.156878
13.045 1.29209 0.426468
20.5392 1.11982 0.354273
11.2578 1.17642 0.399144
14.8715 2.64149 0.961354
6.49408 1.18969 0.505096
13.0222 1.75171 0.923442
15.2982 2.11116 0.705065
19.9654 2.14473 0.676454
19.307 3.03987 0.966889
16.2551 1.63937 0.516312
12.9436 1.4029 0.531133
16.3859 1.39929 0.489549
16.8313 1.55402 0.568909
10.6952 1.29572 0.656518
16.891 3.44122 1.35755
9.47254 2.78826 0.940074
21.5877 3.61746 1.51251
10.5967 1.95057 0.79945
19.4857 2.75739 0.804983
30.3992 9.73797 3.99812
4.3023 0.89769 0.354811
20.1263 3.79997 1.56685
11.106 2.64042 1.1168
13.339 1.26448 0.445044
6.73737 0.324385 0.242069
14.4046 2.86389 0.945826
9.81816 2.03346 0.885179
12.0845 2.17936 0.946005
17.2828 1.965 0.769963
10.4224 2.09622 0.819616
7.12571 0.432708 0.192641
5.9853 1.34841 0.537431
10.2287 0.992428 0.550523
10.7478 1.01543 0.466307
7.55317 1.97193 0.96865
4.67483 1.91973 0.92714
24.9175 3.76099 1.47085
6.42949 1.80331 0.749132
14.7643 2.69165 1.15409
10.6071 2.28392 1.12823
14.8601 1.27143 0.652585
11.261 2.55269 0.917
9.29529 2.24425 0.980254
10.3453 1.46691 0.646581
7.4555 2.5353 1.30464
5.87728 1.4827 0.681758
8.82168 0.502551 0.27166
4.33462 1.70348 0.708093
8.90805 2.41949 1.22419
6.05514 2.07844 1.35434
16.2575 4.18823 2.00887
32.4649 5.98298 2.30934
10.1394 2.39992 1.34341
6.22076 1.61697 0.62039
12.7181 2.63977 1.21641
8.64069 2.36501 1.3781
14.3021 2.92862 1.39421
5.40448 3.42703 1.58081
6.18153 0.889977 0.484255
6.82577 1.39527 0.797304
11.4466 2.09027 0.984152
8.72456 1.46941 1.04844
10.3793 3.80894 1.70518
8.03709 0.354975 0.154181
6.06282 1.06627 0.702796
10.9027 0.872391 0.347643
10.2388 2.83069 1.71529
11.1597 2.4371 1.31273
10.6559 2.12186 1.20824
8.36907 2.95406 1.47371
1.82586 2.30286 1.24227
8.27633 1.58589 0.923746
13.3479 2.40402 1.47676
22.9466 4.60232 2.19483
6.09665 2.05362 0.972819
4.71587 0.876173 0.540501
9.15822 3.15643 2.4117
11.9517 1.77781 0.5116
12.7686 3.12348 1.60714
1.58754 0.833587 0.499153
8.72554 2.21076 1.10806
10.9053 3.92249 2.81667
9.38376 2.74866 1.28305
15.0818 5.78078 3.17892
16.9406 3.68618 2.04854
6.28531 1.10366 0.857263
3.42578 4.13407 2.47677
8.17949 4.00736 1.99803
5.22516 0.991781 0.790608
10.4005 1.3418 0.653375
8.68906 1.18928 0.535354
6.22174 1.79043 1.30797
13.0961 2.93851 1.81869
7.71463 1.4707 0.50498
6.74942 1.62668 0.959264
6.67885 2.25779 1.35722
10.5793 1.91388 1.20142
8.45519 2.59918 1.785
5.82766 1.54562 0.795074
8.09124 1.59332 1.11542
4.05889 1.66935 1.2907
7.46014 2.29828 1.31806
5.6834 0.713235 0.426063
7.05231 0.971633 0.696553
18.7837 6.53638 4.17828
9.9136 2.66498 2.0351
8.57805 1.53084 0.864054
10.0977 2.58682 2.1687
3.48336 1.90356 0.771591
9.75014 2.35044 1.64175
5.20228 1.37433 0.93299
6.40587 1.99776 1.10265
15.9432 9.11479 6.07454
5.75116 2.37191 1.84668
8.74732 3.21193 1.5633
7.21976 0.951102 0.827229
5.74477 1.44705 0.915594
1.17123 1.23508 1.05753
10.8941 1.36374 0.715073
5.9422 1.66286 0.996245
7.65463 1.9929 1.52447
4.13513 1.56952 0.88687
7.71086 2.68243 2.30276
11.8099 2.27237 1.34307
5.72112 2.60326 2.23131
15.9868 7.69401 5.25029
7.63494 3.09391 2.25149
6.00011 0.874354 0.779576
4.59039 1.45468 1.26058
5.85187 1.21188 1.30946
6.42147 3.09588 3.27571
15.1133 4.71323 2.28614
7.82584 1.93043 1.56751
3.82509 3.28751 2.27883
6.23821 1.29401 1.23516
5.79771 3.47964 1.97354
8.41458 4.58934 4.47915
11.0586 3.00111 1.73942
9.00717 3.06935 2.61791
4.55705 1.86196 1.23484
6.69878 2.81035 2.22195
9.59556 2.20523 1.44167
10.8076 4.49464 3.84341
4.52936 2.39416 1.80922
2.32281 2.51981 1.9594
7.68366 2.08004 2.12446
7.74674 4.56219 3.10328
6.05333 2.21618 1.74438
5.37216 0.858285 0.821187
6.63749 1.8961 0.852005
11.1897 3.47973 2.94907
5.95562 2.39037 1.89413
2.51962 2.11894 2.02253
5.70693 2.59674 1.58627
6.39341 3.42089 2.41604
7.09796 1.26494 0.903708
7.956 2.95553 1.96235
6.09986 5.03312 3.9414
5.59461 1.98929 1.5814
4.28675 2.52639 2.49279
9.05493 5.83099 5.03353
2.8947 2.20187 1.68456
6.86347 2.12829 2.00163
6.25271 2.68081 2.12634
7.89239 1.48263 1.41297
3.08144 1.1708 1.03343
9.42197 3.88803 3.15073
6.58759 1.41925 1.24459
6.26405 1.61835 2.22231
8.12493 4.59853 2.29392
6.83304 6.18554 6.18428
5.44333 1.24618 2.04933
5.10198 2.34144 1.17218
3.29868 1.17355 0.984833
9.25647 6.21096 5.16057
4.93599 1.19498 1.86549
6.8651 2.68041 2.66169
7.86522 2.9777 2.74402
3.10837 1.96149 2.6776
12.4838 5.48183 3.62616
4.73198 4.00393 3.84634
3.31935 0.450177 0.677345
6.27514 3.84201 3.09683
6.57775 5.65441 4.42502
1.91622 2.77754 2.63479
3.02772 1.23365 1.27326
4.64437 5.23732 5.9364
11.259 1.87044 1.24992
8.01525 3.36704 3.05621
11.0147 7.1547 6.81231
8.61481 3.04972 2.73238
9.32988 3.13335 2.82325
1.44181 2.12526 1.80877
4.57743 0.980947 1.06131
4.33321 1.04908 0.957998
4.42788 0.922463 1.12184
12.2884 7.43065 6.60272
7.19092 4.57816 4.18621
4.75862 1.65601 1.79486
4.64207 1.3352 1.30033
11.0584 5.30117 6.18874
6.7049 3.17821 3.79653
2.523 0.950369 0.739971
2.08683 1.96553 1.88114
4.08717 2.30693 1.99193
4.52464 5.9598 5.96058
6.21286 1.62817 1.80739
4.83458 1.61538 1.5765
3.38354 1.65529 1.67292
3.13447 0.843667 0.798746
3.2561 2.30491 2.35294
6.4298 4.29275 4.97559
5.67711 3.12709 2.85809
6.61552 3.77547 5.13495
10.5908 5.63911 4.43529
10.1574 8.58854 8.87094
5.50331 1.88574 2.30961
7.94494 6.26414 5.44889
5.26583 1.06309 0.933067
6.7443 2.60816 3.237
1.91035 1.28909 1.07673
4.19197 5.25502 7.45296
5.03883 2.33927 1.16449
3.45791 1.2588 1.53339
5.23615 2.40199 3.15885
13.2646 16.1133 16.309
8.69449 2.79409 2.46491
1.35066 2.595 3.21804
4.87097 2.71756 3.56217
5.87775 2.03088 2.22466
5.05771 2.67631 2.55925
3.70748 7.53223 7.76382
8.20766 2.77469 3.78515
2.49258 0.793069 0.616005
2.47463 3.72187 5.22733
6.5173 1.2783 1.08048
8.03973 3.65334 4.10914
3.40076 2.90589 3.96215
5.2356 2.30763 2.8903
5.96606 1.66385 2.16415
4.56202 1.3193 3.04551
12.0029 8.16178 8.01567
5.58169 3.06524 2.61227
6.5242 6.37697 7.48853
4.80762 3.6996 3.01656
4.87169 2.61368 4.02456
8.10058 4.30213 5.06126
8.63334 5.29141 5.82399
5.47437 2.36115 2.92144
6.89924 2.57908 2.87312
4.0266 3.61139 5.11727
4.21297 3.46281 2.60864
2.08185 1.5382 2.50361
2.6595 2.0018 3.4938
6.6781 3.57456 3.20633
5.01831 4.2116 4.88252
3.04227 3.01299 6.20862
5.80094 1.5831 1.09361
9.2695 4.39475 2.97091
5.84151 3.31782 4.67469
3.55984 3.0139 3.44008
6.38829 2.05416 2.71613
4.59315 2.46874 3.04062
3.80879 5.38909 6.32604
4.34309 3.36853 4.48318
5.63337 4.05502 4.2355
5.83753 2.32062 3.66237
1.43952 3.58568 3.77417
7.27378 5.99907 6.96621
3.80531 2.51401 4.94407
3.77474 3.12679 5.4976
13.8215 9.59313 9.89107
1.46143 1.03438 1.67882
2.28372 1.33522 1.90577
2.01935 0.747025 1.89156
4.14605 1.8438 2.25562
3.06079 1.23667 1.72755
7.28265 2.29145 2.03756
4.86767 8.977 11.2662
5.30372 1.31623 2.50985
5.626 2.42461 3.7135
13.2342 10.9779 11.0763
5.92938 2.77368 5.73039
4.87903 4.27268 4.34634
5.81615 2.17012 2.09783
5.30508 4.58445 5.30764
4.19905 4.52959 6.75505
5.25796 3.81288 5.06869
2.57824 1.3472 0.936783
4.38054 1.27611 2.1573
3.65957 2.95068 4.62459
2.24254 1.76832 2.6256
2.63582 2.02153 2.37509
1.01288 0.633497 1.22549
3.48395 3.801 4.44386
8.01548 7.41867 8.00578
4.85963 4.82851 7.92337
2.98603 2.34764 5.29744
11.6424 6.06827 7.0482
4.33812 3.15169 3.16041
5.87637 2.5051 2.46399
2.22871 1.5066 1.44827
2.54034 1.45763 2.05009
4.18347 5.66889 10.2814
4.46931 3.83942 4.08941
6.01821 4.14888 5.93178
1.54077 2.00863 2.70829
4.13462 1.54144 3.5583
6.84335 4.90519 4.24444
4.81776 5.77711 10.226
5.24989 3.18072 2.49272
2.16218 1.23437 2.60402
5.82361 2.2187 2.9322
8.25031 8.36386 11.5019
2.3169 1.64636 2.69875
3.97883 5.36033 12.5532
6.89592 9.44355 9.45607
5.05881 3.26107 5.33618
8.52375 10.8154 15.8485
5.8017 3.16477 3.4485
4.44486 4.6443 9.26527
2.15619 1.90862 4.21292
3.13255 2.3317 1.96022
3.66843 5.44935 8.45053
4.69838 3.26669 5.0465
4.87142 3.27114 3.49327
2.58147 2.57866 4.0225
4.52445 3.45484 4.73075
5.61445 2.9058 3.84319
3.68229 4.71807 7.08795
4.84037 3.94865 5.14464
4.00778 4.97586 12.4873
7.22754 4.76965 3.56448
4.86758 3.88995 6.87431
3.15457 5.56352 7.13446
6.88681 4.23216 4.94166
3.78168 4.69908 6.99043
6.66085 6.4473 8.19746
1.91121 1.44852 2.70147
0.645808 4.26756 7.75442
5.47015 4.25452 5.652
4.05169 7.6668 10.435
3.50429 2.5164 4.24539
4.73122 7.24057 12.0274
1.75924 3.6258 7.78204
6.99108 5.66112 7.89047
5.34748 2.66707 2.89693
5.43555 4.83869 7.77751
5.27618 2.34366 3.46884
4.48518 2.54681 3.62683
1.76164 0.902918 1.83566
2.02085 2.10224 4.41799
2.4375 1.91809 4.41034
7.15996 7.01346 9.42251
2.04208 1.24063 2.62019
5.22881 4.92239 8.62698
5.33097 6.86346 9.32481
3.54335 3.19233 6.39972
4.86446 4.29824 6.48623
2.57224 3.13021 3.35891
2.35336 3.97621 10.2052
8.71265 8.60325 11.2407
2.3801 1.62857 1.91069
4.17828 3.01286 6.25418
3.23996 2.68266 3.87569
1.96029 2.90719 5.37477
3.59176 5.73504 10.6145
8.76008 4.74549 7.40286
5.8743 4.9111 6.78749
2.65623 2.373 5.61816
2.82019 3.14684 3.3882
1.8276 3.32375 7.62761
2.22252 2.61019 2.61584
2.5555 1.5714 1.97551
2.5135 2.29111 4.03819
2.89048 1.80142 2.8429
1.3055 1.99375 3.79154
2.02079 2.02381 2.75917
3.04868 3.6324 5.74287
3.48668 9.2802 18.9776
6.91835 4.47736 4.77528
3.28839 4.29017 12.2366
4.60566 2.94202 5.80944
5.19649 4.58165 6.93981
8.52684 8.52211 13.9809
3.72295 1.87999 2.30951
3.24675 1.81061 5.17519
5.03103 3.60022 8.44889
3.65959 3.92962 5.84622
2.68934 5.70639 11.1387
3.26231 5.72459 6.54452
2.85575 2.917 4.84103
5.81049 9.15098 13.6626
3.65739 5.36707 11.3889
4.45 2.34732 5.2605
4.78582 7.17155 11.8774
6.11903 6.83207 7.45169
3.4849 3.37105 6.30546
1.62157 1.82056 7.13698
3.51517 1.22365 3.21372
4.55579 6.09981 10.7904
3.26242 3.87224 4.97225
4.85106 3.5026 5.93447
2.60712 5.0487 9.01187
3.08833 6.41258 11.3964
3.21666 3.43792 4.84208
2.53532 2.58397 7.19879
1.86446 3.59729 7.10943
4.03458 5.41933 9.25179
2.08062 1.79129 5.19095
2.51924 4.29482 5.68395
3.1739 2.26407 6.66062
5.14732 5.07307 8.98979
6.27248 8.90427 14.8416
2.9212 1.62107 4.01424
3.32984 3.51832 7.14183
3.5181 3.09539 3.52596
3.45646 7.64986 16.9592
3.96189 2.75294 6.26591
3.95974 2.43466 3.9758
5.14567 5.0796 5.68759
1.30581 3.04342 6.98724
2.79093 1.92142 3.93799
3.89085 4.48049 8.39521
3.75525 2.17782 3.47223
4.82702 3.80893 5.62386
2.2566 1.31055 4.94998
1.92701 2.07971 4.59056
3.45234 6.39138 11.59
3.13574 2.71588 7.44805
1.83113 2.20129 5.77642
5.80102 4.19318 7.30482
2.148 5.21322 9.46533
4.66017 3.78499 8.05937
2.61019 2.54329 5.63712
5.86974 3.94755 6.18594
1.17994 1.65607 2.10971
1.04884 3.29778 9.30671
2.77955 1.92019 3.36479
3.34969 2.87418 5.54105
4.90502 4.6737 12.2237
6.68148 7.17889 9.39457
2.98162 7.89009 18.5748
4.52416 3.54642 3.21827
1.74871 1.78934 3.84759
2.98956 3.52882 6.79413
2.48129 3.24277 8.30311
4.80917 5.03005 12.8554
7.2929 6.54748 8.62431
3.34728 2.94062 5.83884
1.60582 1.71061 9.92786
4.27177 8.72654 13.2722
2.89587 1.13369 4.87616
4.90646 2.37904 5.9194
5.81238 7.1466 14.7693
3.45641 3.77064 8.67957
5.73747 6.14155 5.52221
2.7231 6.2863 18.4212
1.75627 1.83532 3.24336
2.45586 5.53051 9.5296
4.38837 5.07893 12.465
4.64705 2.6308 5.11515
3.71975 5.15501 16.2865
6.33769 5.77104 6.23819
2.04132 1.52779 2.4055
2.1105 2.24754 5.0817
1.70963 4.17777 9.37571
2.03132 4.55352 11.2857
3.71952 2.34601 0.823343
3.18969 2.97086 4.56374
3.25431 5.80612 10.6767
5.33056 5.88786 8.52627
1.24973 1.35108 4.3105
3.33445 5.76839 11.9232
1.18817 2.20232 7.9144
2.0646 5.18824 11.6042
3.31997 5.08528 6.22417
2.55865 6.37215 17.4381
5.70495 8.55005 15.1822
2.98337 1.77091 8.19384
1.81476 4.9499 14.1814
6.6313 7.92968 15.7068
2.83425 1.65405 6.17112
5.28926 3.03866 3.22702
2.0661 1.6923 6.23124
2.18085 5.6223 11.7354
3.90514 5.23342 7.98391
5.10695 12.2192 28.641
5.30306 3.42146 8.53283
1.19471 1.70155 4.27331
2.5567 3.52872 12.262
8.40648 8.19571 12.6256
6.70693 9.94316 18.4878
1.04354 1.0838 5.17291
3.14368 3.97587 7.14523
3.06556 7.90832 14.944
0.981198 2.5781 6.26812
2.04154 4.28366 10.7241
3.00479 2.05703 6.65832
2.28655 1.4877 4.52405
2.80384 2.09954 5.90169
2.49314 1.76622 5.13957
3.89487 5.52707 9.78733
2.63962 3.92928 6.5042
2.29326 3.1249 11.1174
3.17002 5.34316 5.72967
1.18367 2.57504 10.8437
2.96557 3.67132 6.99591
2.45877 4.03371 8.08899
4.37607 7.77698 18.1214
3.28478 0.916798 1.05973
2.56132 2.74005 6.23954
0.37108 6.26082 23.9301
5.02341 3.20189 16.1263
12.7441 17.0897 25.2659
5.23168 5.70194 13.1436
3.61894 3.851 7.25049
3.92619 3.92451 8.50291
2.28322 4.39194 10.4242
2.17166 1.89445 4.79662
2.58642 3.84044 6.89471
2.76317 1.19132 4.67239
4.11623 3.31418 10.0488
5.42722 10.6968 24.1667
2.58297 4.55903 10.7381
1.09667 1.86279 5.23075
4.00699 9.41774 25.4556
6.22823 12.1581 23.9843
4.95651 7.59896 16.5902
4.09051 5.60793 12.9375
2.81211 7.22923 20.7697
2.01056 3.07144 13.2783
4.56178 3.85628 4.48923
0.703424 2.14443 10.0243
3.0035 3.98934 14.3747
3.35945 3.87915 8.16106
5.10463 8.79025 8.01035
3.08688 6.13669 10.7872
3.99984 5.63323 11.456
2.71415 5.51784 14.7158
2.11997 1.89931 6.87123
3.31312 3.97813 10.0126
1.24466 2.79393 4.55383
1.80619 0.968731 4.10651
4.12892 7.71482 12.2316
1.27048 1.87655 9.97469
3.1615 2.99092 7.0326
1.35734 3.88364 12.1497
2.79647 2.84894 5.85547
3.20228 5.25726 17.3281
1.761 1.67825 6.38671
1.97056 2.15425 6.45486
3.18527 6.53937 23.0896
5.52836 3.73501 10.8224
4.74695 4.36356 11.0419
6.91822 11.3634 16.8925
3.03938 8.62735 19.87
2.77137 0.981541 3.50341
3.67671 4.89466 13.1869
3.21423 6.04762 12.1341
0.844948 1.8558 8.2654
3.07282 4.75558 9.70586
1.9213 2.49336 6.68161
3.29175 2.81368 4.45576
2.56802 3.18294 6.83179
1.67778 1.54989 6.19219
3.91147 4.8316 12.2508
2.32105 2.11001 3.18142
2.19305 3.06924 10.4886
2.03963 3.22319 13.741
2.68355 3.04362 5.62338
2.3421 2.65993 6.89788
2.98585 3.42777 16.5164
3.0947 7.6601 14.9322
4.36801 2.80481 5.13588
3.19453 6.39879 14.0215
1.51385 1.86522 5.60065
1.0385 2.95155 5.90186
1.04645 1.26172 2.30294
1.94738 2.35485 9.44701
3.33292 11.8779 21.8904
2.00147 1.98671 5.48628
1.2612 2.47548 11.5832
1.9338 4.28483 10.7543
2.3477 6.93931 16.367
2.44562 6.81766 16.8935
3.30042 3.89801 19.3496
4.18655 7.43619 21.49
3.28689 1.46499 4.3095
3.55915 5.03526 8.94823
1.43263 6.32894 13.8607
0.575863 3.86675 14.9476
2.7566 6.07044 6.33216
0.672907 5.69128 21.1255
4.56583 3.91324 4.5628
2.83638 7.92847 21.0832
3.21344 4.4968 15.5424
5.31871 5.32769 10.7555
2.21475 4.21275 8.60189
1.02175 5.82885 15.0227
2.71566 4.05557 17.2938
3.55624 8.30053 11.5678
2.28707 5.54597 20.4894
3.78145 1.70757 13.5732
4.17481 5.66016 14.7027
5.22981 8.84887 17.3431
2.5996 3.31314 6.76937
2.17506 4.37678 12.1746
3.63272 4.55617 12.0551
0.83514 0.270478 3.0493
0.937349 3.20409 8.97783
2.45889 2.74855 9.68077
4.70218 4.13428 8.20353
1.36474 2.72259 11.2318
2.55055 1.42996 2.14802
1.49945 4.33009 12.0235
2.92791 7.04421 17.3356
2.98589 7.94339 28.2924
6.36334 4.79121 12.4526
4.34242 4.29842 8.16093
6.08295 8.41952 11.0497
1.88194 1.93984 6.17173
3.5148 7.46869 14.5861
1.13113 2.76421 16.7388
1.58711 3.5437 14.6096
2.35 5.79505 23.9884
6.00988 11.688 20.5182
5.38703 7.72112 17.1985
1.55322 2.91761 11.8449
2.52032 2.95481 10.8672
2.37808 2.85836 4.25823
1.75649 3.09949 7.73286
2.15076 1.64673 3.86559
2.13677 4.27308 14.7799
2.2415 4.62693 9.21613
2.11346 2.72588 11.7904
2.19271 3.73973 11.1157
3.45865 6.0111 9.71211
1.19594 7.26252 29.7298
3.6545 1.80052 8.57133
1.82252 3.37535 11.4218
3.64638 3.90123 6.33821
2.78138 2.67916 11.5596
2.42768 4.89537 10.5068
2.83787 1.24453 3.2281
1.5115 1.7415 4.87136
2.46776 5.43701 16.1792
2.02256 5.42408 46.2721
9.34091 18.0315 24.7321
3.61195 9.23588 22.1273
4.90661 7.65469 12.3657
0.738556 4.22728 20.4001
2.09232 7.87206 21.0422
3.54222 3.60815 7.75618
1.41689 1.5733 2.33368
2.05501 3.07179 5.58492
0.94575 3.54179 12.9755
3.14034 2.99124 12.486
1.66647 1.9457 4.04566
3.08948 8.74541 32.4666
4.36676 6.04941 11.6349
3.82779 6.39195 16.4544
1.51212 1.19127 2.38415
1.29562 3.248 19.574
1.66017 2.71025 6.54174
1.73434 4.45127 12.5419
2.46202 1.27038 5.45917
2.32199 7.62237 38.4481
3.80041 10.3898 9.67521
1.22261 8.51698 29.8386
4.3467 2.85844 10.2689
3.14524 4.91113 22.003
4.19712 9.29529 11.4147
1.0701 2.23588 12.1782
4.01757 4.96359 11.6717
1.02947 3.83458 11.8844
4.16949 5.17742 8.26751
1.96096 6.00515 15.0218
1.55729 0.648933 4.17344
1.30161 5.64209 24.5923
3.00199 2.95157 3.12166
1.55508 1.33013 5.8028
1.49696 2.7004 6.26015
1.68553 9.12652 31.2167
2.86715 1.05306 4.65723
2.19408 7.05718 20.1341
3.63626 6.79672 27.57
3.80646 1.85337 13.1553
3.99508 8.72622 19.8019
4.71511 7.23005 22.0568
1.2384 6.48032 16.847
3.62806 2.1866 8.88286
2.17134 5.29034 24.1585
4.80574 8.78939 16.5896
1.81442 6.65531 15.482
2.59921 3.702 18.5975
4.57493 10.7025 22.0123
1.57716 2.2127 6.20114
1.4059 5.77694 16.3896
2.81685 2.7404 12.6889
1.79335 6.21945 33.0228
5.23747 17.5008 29.0373
2.4332 4.44881 26.8861
4.33344 8.18621 17.8403
2.70664 6.09158 27.2026
4.43967 3.88697 5.45817
2.10799 2.70647 5.49683
0.637788 5.0954 21.4298
3.63374 5.80937 25.6407
3.05849 5.96357 15.7248
2.04854 3.44692 8.42325
0.797294 3.9005 8.22263
1.78992 2.84241 7.2601
2.11563 6.02598 14.6458
0.990787 5.15664 31.665
5.7399 5.93465 17.553
3.2966 3.71934 6.79396
2.99113 4.51409 5.96284
1.42842 6.52968 42.3726
5.45959 6.55698 11.03
3.34522 12.1969 24.7202
1.70372 5.28647 23.3773
1.52325 3.07499 16.1141
2.41761 8.69586 16.1295
1.62333 2.44301 16.5903
2.41929 5.01849 19.4648
3.38946 5.79405 9.06559
1.93048 4.24044 19.7006
3.37621 5.31855 15.0873
2.97833 5.92 26.8351
3.35601 4.60812 9.31638
1.6538 2.78763 11.7192
4.15849 6.4153 20.7816
1.97202 2.87086 17.3164
3.08204 5.91019 12.4958
4.00308 9.5115 23.8358
1.71058 3.37728 21.4118
3.02512 2.60745 6.04491
2.00912 3.56474 11.6435
2.40949 5.19496 11.5171
1.76578 7.95802 24.7712
3.76827 4.50568 5.04207
1.49196 8.37176 41.2255
5.22387 4.05115 18.5233
5.33369 8.02367 15.1705
3.47603 8.66582 15.1399
2.44591 9.19493 32.9811
2.7801 7.03359 18.6823
0.661245 0.867688 8.65226
1.49181 1.72566 15.7187
1.75753 9.30099 25.8741
3.01612 4.84187 24.9953
3.22999 9.23724 15.9626
1.92207 2.13606 5.6886
1.76014 5.2187 13.7591
1.66966 7.99103 25.6052
2.12458 3.32644 7.93554
1.12297 4.35909 27.0834
4.19303 7.02268 21.8528
2.90462 5.56288 17.387
1.83487 5.40974 27.879
3.5316 10.5 29.0946
3.23642 8.69207 20.0692
2.94768 6.39567 31.2781
3.89183 1.50865 10.1351
3.08205 2.73354 12.6709
4.20018 8.74714 39.0883
6.2791 14.0417 27.9648
2.8695 5.35819 16.6536
3.40469 9.23523 24.0548
2.46102 3.98732 26.5211
3.02568 9.5539 30.4135
3.05447 7.19732 9.52067
2.06288 7.31584 25.6236
3.18897 5.53145 17.1799
1.69396 7.39099 30.281
4.31665 5.21039 4.74643
2.33094 3.63128 14.3065
1.83219 5.62637 10.2924
2.07256 8.39816 47.7222
3.30474 7.14996 10.3419
1.60105 6.87658 17.7444
2.65365 1.69813 7.52833
2.57305 3.90165 18.9268
2.87734 9.17519 28.1758
2.72422 3.04778 7.92719
2.46746 5.04479 16.5422
2.64646 3.37433 14.2554
1.6169 4.74787 10.9886
2.67518 5.73145 20.6673
1.99948 8.24383 38.9469
4.35646 8.89931 17.4097
1.01918 3.1804 26.4837
4.41166 5.41262 12.9762
2.79014 3.62629 11.5917
1.70391 3.47521 13.2967
3.23338 10.4593 22.6507
1.53108 1.38514 12.9736
2.90216 7.23742 24.6592
2.16363 8.10127 42.7861
4.9627 8.17594 19.9033
1.60626 2.51321 15.1903
3.51124 10.1983 22.2918
1.68816 2.62202 9.70762
1.40393 2.5457 16.0762
1.88409 10.7908 25.6323
1.76457 4.55195 8.76369
1.23146 2.26599 16.5341
3.3554 4.09389 13.618
1.80499 1.36144 7.35912
1.96386 1.97641 9.74193
2.32255 5.1863 16.1149
1.90902 4.29345 12.6573
1.56661 5.0379 27.1924
4.29472 7.27757 35.6231
6.35711 16.9475 40.4088
3.37854 9.00143 33.9454
3.67269 8.22178 15.085
1.88899 4.51858 21.7286
1.66314 3.34857 18.1927
3.76292 14.9138 51.234
3.60686 3.14977 9.26836
3.43065 5.64723 6.97822
1.65571 4.51019 13.4464
1.95015 5.26593 28.5067
3.94337 12.7654 42.8562
3.67082 5.59658 11.7841
0.92794 2.06063 23.5989
4.25671 8.59205 20.2049
2.08033 5.31638 14.0366
1.05643 1.47737 5.47391
0.815627 8.90339 44.8984
4.39899 9.87609 18.8969
2.13454 5.00536 17.8544
1.09906 2.16502 16.817
2.27806 9.13887 31.7818
2.99068 1.94623 25.5845
2.9737 14.6243 33.0598
2.13 4.57591 20.1052
4.36534 5.83177 15.5857
1.0164 3.18106 6.82553
1.81522 5.90248 20.7093
1.66407 7.9041 81.2356
7.99878 21.216 27.3129
3.75616 9.30929 23.4225
2.73901 9.67776 43.1586
2.35692 3.43157 19.84
1.76348 5.21181 21.2496
2.69448 3.57781 11.6018
0.844906 4.45586 6.79221
1.57947 7.00175 31.2998
2.75318 4.06579 20.1614
2.63511 7.35823 9.06752
1.50038 2.7118 14.5564
1.84669 1.82645 8.1538
0.925154 6.58873 14.9558
2.19251 9.28184 64.0842
5.59553 6.32822 7.53805
1.49787 5.42158 18.2031
3.07673 5.14251 32.1971
3.60566 8.75265 16.9766
1.67519 5.91892 23.832
2.26964 2.69485 11.3645
1.79411 7.90771 24.1419
2.67213 2.26139 3.47065
1.11467 3.01781 14.4344
2.23054 4.93249 37.0809
4.51582 13.7423 39.3404
3.94872 2.98761 13.786
2.81165 5.74657 13.6414
2.08465 4.05486 10.2456
1.848 12.2029 28.8869
1.14968 8.58914 27.966
1.55901 9.99107 52.9083
5.27451 4.80812 5.90024
1.40566 4.04422 29.9854
1.99326 8.95198 18.3556
1.9153 2.21926 12.6231
2.1358 2.8549 3.98324
1.05107 2.99956 12.0517
1.56817 0.884173 12.2404
2.15424 5.44481 11.2504
1.34096 5.25575 11.5712
2.28099 4.31573 14.6046
1.03575 3.86777 45.6936
5.95967 12.339 18.0263
2.24401 4.35032 35.9067
6.06036 14.0546 27.8718
2.28058 3.15971 4.45976
1.45415 5.6049 28.8153
1.52064 4.19451 19.0881
2.14903 3.80431 17.3421
2.05453 12.7825 30.6779
2.0714 5.43266 58.6878
5.85318 13.6259 17.0216
0.931212 2.39781 13.6412
2.68277 4.43284 28.2128
4.30644 9.02735 23.3026
3.00285 4.96291 11.2546
1.01716 5.87765 32.8353
1.63173 3.76401 9.54418
0.521065 4.29225 30.5896
3.14816 2.47007 15.8393
2.84281 4.95351 20.8126
1.99728 3.71813 13.9427
2.61229 4.08549 8.48508
0.875114 1.96271 18.3227
2.64828 15.807 60.5518
3.50413 4.34572 4.16654
1.0603 3.74869 6.72703
1.3732 2.28647 12.2916
2.00153 8.13954 20.7501
1.64236 4.28825 18.2574
1.57339 2.83811 18.0559
1.76135 10.746 47.6376
4.78666 12.8583 23.6464
3.25808 5.29085 17.66
1.93418 5.95909 18.0006
2.1436 3.59284 20.484
1.7602 5.33696 34.2103
2.83387 12.1432 29.4367
2.81058 16.4014 63.5825
5.9421 5.25257 10.6054
0.804219 2.31686 10.309
2.08245 3.69683 18.7146
2.99326 4.76333 20.6666
2.06537 3.43757 40.615
3.56651 11.0555 33.663
3.78298 1.1918 29.924
4.96362 13.333 16.7354
1.89221 6.48543 32.3627
4.01794 2.66027 8.54317
1.74375 4.15809 12.7851
1.92049 5.48521 16.1064
3.24185 2.66805 6.12776
2.38213 7.2818 28.6865
3.08169 8.27807 26.3993
2.3635 2.6734 10.1097
1.2521 7.82426 32.972
4.52436 12.1338 27.8479
1.17807 3.55344 21.8116
1.32993 6.57375 47.4546
4.60034 9.30282 28.6341
3.46713 15.6123 46.9377
2.47177 3.77727 16.9311
1.07008 6.81705 17.397
1.6284 1.78621 7.15379
1.89242 7.42283 62.0619
7.75607 13.9694 21.5928
0.869589 2.96007 22.1703
3.25734 4.66412 12.9679
0.994836 3.26065 27.1299
2.45282 7.03392 12.4978
1.5275 2.67947 23.949
3.29768 3.35367 9.43694
3.18384 5.94301 9.4432
0.729033 7.48188 46.1734
2.97308 4.84863 14.0697
1.4744 2.09437 7.56915
1.87718 3.58843 22.7483
2.86787 7.31915 16.7525
2.28466 0.703346 6.02542
1.63612 5.33432 32.6014
4.31816 5.19005 15.8882
2.29119 3.4696 9.91557
1.46085 3.77812 8.98344
0.723114 0.909596 7.13561
2.14044 3.8557 14.2374
1.62567 9.21528 23.333
0.871236 2.84125 14.2411
2.54948 5.1837 7.01402
0.909745 2.38717 20.0518
1.36798 4.72651 7.64507
1.43493 1.38462 7.02981
1.05852 6.54271 30.6676
1.92275 8.59019 32.5321
3.12491 4.87177 49.2359
3.67754 5.12575 28.6326
3.91221 12.2463 20.5094
0.624908 5.56886 33.1386
3.8615 10.4124 17.8355
1.08965 3.94571 22.5369
3.06381 9.7766 25.9832
2.83194 0.518706 13.9644
2.53092 3.57775 9.73405
2.14159 5.38413 33.9031
3.88666 8.97871 20.1922
2.17833 5.41047 23.9476
1.70202 3.43732 22.8546
3.09721 9.9628 16.3641
1.24556 8.06958 32.6828
2.89997 5.47409 13.625
0.950622 1.85716 3.5021
0.847289 1.46458 12.9795
3.12507 13.1788 24.3764
1.85068 5.45778 33.3023
2.20445 2.70114 13.4832
2.11274 9.39812 31.9522
1.91057 4.20094 12.8733
0.567618 3.64702 19.3186
2.1595 9.48555 37.4279
3.55048 7.71986 34.2746
2.46712 5.38741 20.2591
1.37462 6.74909 16.7089
1.84811 4.65585 33.0411
3.88139 8.68424 23.0453
1.35276 3.95049 21.4619
2.67121 9.40505 23.0518
2.87337 8.22773 33.5093
2.58019 4.71393 37.3717
4.04943 13.2294 32.2977
2.83225 2.61753 6.27551
1.22636 6.78154 27.1953
2.15984 4.90398 13.3876
0.769085 3.98745 41.5255
5.05611 10.8586 20.4635
1.79674 6.61726 20.4641
2.05992 4.94519 24.5477
1.69959 1.90263 15.6656
0.707669 1.3147 20.8687
1.21624 9.66249 38.9398
3.37099 2.26074 48.0147
5.94508 14.4134 16.8442
2.3776 15.5814 53.5715
4.13856 4.72519 8.33009
1.22197 5.01771 14.17
1.03409 2.31051 10.5025
0.719361 3.26768 8.36464
1.44389 6.14357 35.9939
2.40687 9.23497 35.8859
1.83533 4.25648 10.6241
1.4861 4.56855 11.2683
1.05319 2.65514 28.9548
3.33229 4.27336 2.75981
1.1453 4.41003 13.7564
0.896775 1.84136 22.37
1.21786 4.42302 18.4395
1.11047 4.56689 15.2061
0.732027 2.63227 9.39136
1.21782 4.48254 8.13085
1.06177 3.88005 12.092
1.26044 2.94215 21.1456
2.88477 10.8315 67.3841
5.10852 3.66291 23.1623
2.11019 8.00088 23.9175
1.57643 13.0327 20.6896
2.44564 6.75981 38.224
2.84777 8.50711 24.1554
3.64724 10.3759 31.7945
2.13766 2.27549 2.53166
1.03143 6.2081 52.0735
4.57847 7.51142 20.3074
2.33624 3.30473 12.4943
2.08009 3.4216 25.2636
3.89775 5.20975 17.5068
1.73587 6.44033 19.6773
1.84002 5.68932 11.1328
0.659137 0.934286 10.1929
0.902223 6.14633 41.0894
3.24698 8.04333 11.3078
0.572543 4.53678 10.4072
1.66903 3.22057 16.4339
1.80218 2.87531 12.8168
1.16909 4.36211 21.9596
1.48992 3.14054 25.8523
3.27136 11.9872 36.947
3.64959 4.18727 7.98338
1.97356 1.26747 13.8604
2.73699 8.42832 27.8291
1.51254 3.07306 14.2426
1.35282 3.78589 18.6939
1.66766 12.1068 54.6271
4.39548 10.2665 77.9652
7.3426 17.2849 36.3105
2.97326 15.7453 32.4581
1.90079 5.71451 39.1729
2.97247 6.26418 19.4256
1.31473 4.0595 18.2047
2.68561 6.97597 15.4179
2.20928 6.52904 10.2043
1.18252 4.87994 19.0855
1.57525 4.38674 52.7071
4.76717 12.4273 21.5721
1.50551 9.51499 19.0532
1.36921 2.73952 18.7001
1.58189 3.35764 26.931
2.27168 2.00709 15.3362
1.96083 6.71312 11.8862
1.40108 9.43589 43.51
1.65249 5.20508 28.2906
1.65382 9.85148 48.4942
5.05031 10.1221 26.579
2.78112 5.50634 99.5942
7.18409 32.2192 41.3691
3.38648 4.385 24.8886
1.7781 2.1199 10.1263
1.8327 6.21124 34.9753
3.11773 6.90032 18.2028
1.05846 3.79805 15.5899
0.659178 3.19059 19.8273
0.905479 1.82493 22.1088
2.06583 4.57393 24.5647
1.96116 9.74048 17.1789
2.38923 4.8731 9.31494
1.09254 6.62939 25.5761
2.5538 6.28752 10.7804
1.40878 4.25615 25.2388
1.82697 2.28443 29.0215
1.98009 7.80708 18.7692
2.11662 2.1739 3.63844
0.797841 4.58154 13.6265
1.2176 3.79308 39.1053
1.5075 3.7485 9.70317
0.85134 6.02415 20.82
2.14289 5.08781 47.4944
2.54264 6.69909 10.6245
0.792769 4.72134 46.119
4.77825 11.9656 27.5269
2.13601 1.85595 15.5842
1.52009 3.43804 14.231
1.06079 5.74832 13.2194
1.29923 2.73848 17.4115
2.18394 4.48362 19.1145
2.09644 10.6501 21.5824
2.47657 4.26031 17.1953
1.21534 1.69169 21.5994
1.0384 0.725934 13.283
0.812565 2.27169 17.4707
0.700757 5.28914 25.8824
2.22033 7.62205 15.9174
1.50919 7.09611 15.0053
1.38369 8.63886 14.1418
2.55413 3.07742 19.8845
2.48091 2.51366 16.3185
2.16833 7.28045 26.751
2.96363 3.8448 43.3578
3.56928 5.29966 16.6279
0.990018 2.80772 9.60481
1.57401 1.16586 24.4851
2.09997 7.34353 14.474
1.77592 11.4091 39.7714
4.27187 8.43569 16.7942
1.2133 4.25801 29.949
2.35235 5.81911 13.9135
0.849235 1.52701 23.4044
2.40375 12.4018 36.3413
1.9975 5.1206 10.9578
2.0509 1.84053 6.19131
1.44129 4.51778 25.8613
0.954879 2.54711 15.14
1.32641 2.6839 26.8639
1.9094 4.24135 13.4182
0.994965 5.37982 12.1267
2.05085 10.3646 43.0735
3.19189 5.99826 19.0373
2.19798 7.81893 40.8816
3.82663 4.83556 12.0004
2.52348 9.62413 76.8622
6.10209 15.8776 27.6986
2.25553 7.81271 24.8125
1.73891 2.03512 11.8146
1.0323 8.26463 48.1151
3.66571 12.881 77.0119
4.96323 18.6681 35.8045
3.35361 4.98049 14.9117
0.991269 4.87855 24.227
2.39242 0 0