# pn-170911/RbIIA-30-RbIIA-1280-1959.psd
# Power spectrum* (dif=0,1,2) (really just |FT|^2)
# NOTE: only the first half! (symmetric)
# weeks: 1280-1959
# 540 clock-days, 137 excluded
# PSD: 1441
7120.5 0.501434 0.0102263
462375 6.28564 0.00834272
3.03888e+06 67.2915 0.00962444
270475 9.27789 0.00805932
200148 13.761 0.0092783
105574 9.64636 0.00931555
76479.2 11.0495 0.00839683
52054.4 9.35675 0.00981034
45659.7 11.7486 0.0103615
45052.1 14.7411 0.0118511
34758 14.2533 0.0120821
31178.6 13.7356 0.0157249
17507.8 11.0286 0.014615
14405.2 9.52464 0.0147639
16849.3 13.5696 0.0198603
12073.4 11.5103 0.0223605
14671.3 15.0697 0.0240329
12256.5 13.5788 0.0256138
8568.94 9.16847 0.0224755
6672.17 7.81702 0.0211644
6261.12 8.47406 0.0207196
7532.87 12.569 0.0305769
7252.3 11.4047 0.0346669
4988.83 9.94378 0.0259941
5576.11 9.95949 0.0338709
5910.83 12.625 0.0388137
4277.66 11.3395 0.0458059
4015.57 9.15459 0.0325125
3464.62 9.90025 0.0468901
3079.71 9.33914 0.0441807
2391.53 7.19945 0.0390735
2634.63 8.75701 0.0451452
2275.02 7.36657 0.0422604
2164.43 8.55633 0.0504797
2298.64 9.84303 0.0592095
2295.8 10.0049 0.056587
1707.33 7.00525 0.049786
2399.25 11.5381 0.0718621
1679.57 6.90724 0.0558633
1966.24 9.28629 0.0684139
1510.42 7.17396 0.0584734
1322.14 6.57104 0.0576398
1508.46 8.3249 0.0783307
1198.12 7.10403 0.0683915
1171.83 6.3168 0.0697839
1318.85 8.39771 0.0843142
1155.62 7.23588 0.0812847
988.085 7.51165 0.0844376
967.029 7.23009 0.0858932
848.505 7.40641 0.0844401
813.825 6.9617 0.0864424
904.429 7.7025 0.0977985
726.343 6.73985 0.0949427
749.239 6.40386 0.0890654
645.391 6.8411 0.099684
685.713 6.8329 0.102967
640.63 6.32158 0.100301
694.156 7.32233 0.121403
662.226 6.54033 0.109578
620.677 7.15894 0.125522
597.369 6.75448 0.119266
571.002 6.80985 0.129835
533.723 6.43048 0.12028
522.823 6.13307 0.123797
473.697 6.23643 0.126601
548.901 6.67425 0.145158
422.847 6.49747 0.136014
504.295 6.24633 0.146521
439.891 6.36036 0.141622
488.609 7.05771 0.162763
477.893 6.57949 0.156303
415.545 6.34796 0.157049
417.294 6.51781 0.168782
346.504 6.34598 0.16581
374.639 6.23416 0.163261
349.652 6.15346 0.174953
356.855 6.07885 0.167637
322.623 6.18226 0.178943
312.619 5.72086 0.167378
308.794 6.06738 0.189788
283.318 6.60309 0.203374
327.66 5.983 0.197377
275.137 5.60017 0.178804
308.375 6.18286 0.204441
327.533 6.58077 0.225824
263.439 5.8001 0.197775
270.135 6.10887 0.217953
269.773 6.79485 0.248153
276.656 6.64555 0.250143
249.888 6.03923 0.225281
236.426 6.0465 0.237847
215.176 5.24843 0.210858
221.941 5.90034 0.238493
221.165 6.27396 0.260957
217.348 5.75159 0.249831
223.336 6.07217 0.265063
203.862 5.96303 0.268723
231.292 6.10932 0.276605
213.247 5.96372 0.279154
207.756 5.72255 0.270306
218.377 6.24021 0.301277
207.418 6.69774 0.329183
205.046 6.33834 0.313977
188.664 6.30337 0.32204
189.192 5.99142 0.306857
184.074 6.30123 0.338286
188.628 6.14698 0.329303
172.831 6.25812 0.346701
174.008 6.36549 0.358734
176.134 6.40972 0.367082
160.442 6.36234 0.368723
169.131 6.24905 0.373989
150.919 5.82527 0.360593
164.259 6.34487 0.396053
159.736 6.08457 0.376219
149.986 6.26842 0.407267
160.944 6.53822 0.422744
144.74 6.25104 0.410994
141.863 5.48117 0.372165
146.651 6.2425 0.425672
133.755 5.42741 0.371047
143.884 6.35538 0.440883
124.173 5.70398 0.404643
139.003 6.15158 0.453887
120.138 5.42479 0.406646
122.55 6.18771 0.467182
121.822 5.92007 0.442383
119.383 5.72542 0.448181
108.655 6.02488 0.46544
114.099 5.78916 0.462311
105.52 5.67428 0.457439
109.722 5.62147 0.459921
113.212 6.19886 0.515532
117.245 5.9835 0.494458
117.743 6.25534 0.530311
95.5771 5.29057 0.456682
102.542 5.55944 0.48972
110.115 6.10415 0.550064
105.89 5.75753 0.529215
105.014 5.97183 0.548886
98.8875 5.83949 0.546793
103.412 6.37733 0.604918
85.5887 5.02783 0.481634
98.5307 5.64887 0.545133
95.6605 5.93612 0.591372
98.184 6.65645 0.650988
83.0765 5.47933 0.551601
94.5849 6.00785 0.607579
92.6487 6.06976 0.630156
83.7759 5.41366 0.565001
90.1848 6.19213 0.65164
84.2108 5.78759 0.619812
83.3169 5.83982 0.633626
89.3715 6.23595 0.703251
79.5981 5.7048 0.6302
86.8307 6.12068 0.695267
83.9968 5.90748 0.679994
77.9059 5.74209 0.675098
77.7154 5.86022 0.690109
85.4575 6.54905 0.775172
77.7072 5.9251 0.717201
69.0521 5.60329 0.688841
72.5391 5.51789 0.687985
73.6717 6.05546 0.75778
73.9621 5.85892 0.751946
69.0183 6.01676 0.758372
74.027 6.39488 0.829034
69.7848 6.24199 0.829755
80.232 6.48613 0.853935
71.4668 5.54656 0.749885
68.4154 5.6896 0.759427
79.5124 6.27253 0.869478
66.8134 6.2372 0.858236
67.6103 5.71008 0.816502
66.2932 6.15505 0.892438
65.9038 5.86622 0.83883
70.4405 6.5125 0.949469
69.4596 6.2642 0.947642
62.5694 6.01604 0.901289
59.1342 5.72003 0.860232
55.7897 5.81622 0.876222
61.8521 6.38321 0.994612
58.7008 5.60151 0.874604
56.6672 6.05238 0.954252
61.6072 6.29849 1.02658
55.3085 5.34876 0.862276
58.0678 6.46895 1.03327
54.7112 5.73498 0.961443
56.7119 5.69227 0.946348
55.8765 6.00265 1.00773
54.7983 5.6908 0.961243
55.0275 5.85024 0.993678
54.4217 5.77605 1.01473
50.864 5.54322 0.956228
54.6617 6.12025 1.08622
52.344 5.82338 1.05124
53.0806 5.92282 1.0596
50.9774 5.75019 1.03607
48.9109 6.2014 1.14557
50.2889 5.884 1.09459
47.1939 5.55139 1.03648
47.7928 6.04538 1.16285
50.8572 6.29875 1.19636
52.8575 5.87774 1.13503
48.1325 5.83301 1.15881
48.8563 6.26896 1.23509
46.633 5.53782 1.11256
51.9033 6.38742 1.26542
52.7481 6.5822 1.33428
45.1121 6.21688 1.28876
49.8983 6.08897 1.24111
42.0583 5.8974 1.22594
41.5796 5.60803 1.19466
40.1358 5.26713 1.11734
42.7184 6.002 1.28482
42.9058 6.02582 1.29114
42.5954 5.62545 1.24214
42.2324 5.88458 1.28552
41.7127 5.63776 1.25134
43.3677 5.7308 1.29037
44.1607 6.10367 1.40014
45.3283 6.53712 1.49893
42.0518 5.95867 1.34917
40.2297 5.85833 1.36345
40.3417 5.51392 1.29636
41.2449 6.3115 1.50883
40.8446 5.8959 1.40111
39.3255 6.01166 1.46772
40.2859 6.10029 1.45353
38.4667 6.32966 1.53549
36.6889 5.35698 1.32825
37.6813 5.93466 1.50093
35.7485 5.5769 1.38341
34.2664 5.87338 1.499
38.5635 5.93454 1.48253
38.0528 5.93844 1.53487
38.0276 6.01263 1.57041
38.7533 6.1563 1.61213
37.5148 5.97862 1.57969
37.64 5.9273 1.55619
36.7527 5.78211 1.55664
36.0487 5.7052 1.54981
36.0898 5.74093 1.52955
34.8175 5.89295 1.66771
36.976 6.0211 1.63285
35.3787 6.17624 1.74121
35.0046 5.85745 1.62832
35.0222 6.45794 1.84974
32.2528 5.76029 1.65636
31.4218 5.50813 1.56384
30.2855 5.8422 1.70519
32.5633 6.32162 1.84483
29.9484 5.77379 1.73634
30.5787 5.33141 1.62431
32.7361 5.99845 1.77724
33.9393 6.37224 1.89254
30.3039 5.783 1.77067
33.4778 6.22788 1.89426
34.6698 5.95719 1.83452
32.3971 6.12206 1.89435
32.2303 6.05267 1.92945
32.4241 6.32134 1.97551
31.5451 6.01831 1.949
28.992 6.07839 1.94357
29.1969 5.76422 1.86823
30.7037 6.21491 2.04568
27.0664 5.76379 1.88504
28.0716 6.06246 2.01177
28.6101 6.04252 2.0058
30.2865 6.31078 2.06477
26.171 5.65729 1.93515
28.4772 5.93816 2.0177
28.2416 5.77988 1.98047
29.8151 6.15994 2.17697
27.746 5.80788 1.98583
26.929 5.8699 2.09053
27.9812 5.84837 2.09309
27.7106 6.34886 2.21878
27.3701 5.90773 2.06977
28.7817 6.15987 2.24901
26.749 6.29428 2.27309
27.6259 6.01037 2.16538
27.2491 6.58172 2.43053
23.0752 5.25613 1.92805
26.6618 6.8616 2.5584
25.3937 6.21826 2.32463
24.7353 6.02577 2.27556
24.1052 6.30338 2.42977
25.9987 6.21717 2.38605
28.4844 6.75872 2.5829
25.6736 6.63673 2.5983
26.524 6.20125 2.46364
24.0823 5.75236 2.24891
24.5225 5.95505 2.36072
23.0126 5.67318 2.33225
24.8025 6.36501 2.53826
25.6011 5.80117 2.30401
25.2587 6.15267 2.49277
23.9107 6.2758 2.54579
22.4155 6.30572 2.61287
22.6084 6.22526 2.58718
23.1853 6.15989 2.52445
21.9642 6.03611 2.58052
22.6487 6.10856 2.63427
24.0985 6.80528 2.79423
21.9813 6.5421 2.79108
23.245 6.0554 2.6406
22.1786 5.65195 2.34734
21.6544 5.87674 2.54224
22.3421 5.89648 2.58985
22.209 5.76477 2.5456
20.783 5.44954 2.43144
22.5396 6.18974 2.79181
22.6309 5.73798 2.57059
22.4045 5.93299 2.68275
21.2531 6.03093 2.68961
19.9067 5.47406 2.55063
20.5622 5.91919 2.84152
21.2225 6.17848 2.81356
18.2397 5.74333 2.63277
19.5255 5.72935 2.69712
20.164 6.38664 3.08007
21.2974 6.10931 2.87866
21.2659 6.1736 2.93411
21.4167 6.78038 3.25144
20.3968 6.02383 2.97568
22.0121 6.24752 3.00866
19.6933 6.02788 2.91807
22.1721 6.50978 3.1527
21.7685 6.63616 3.28943
20.7517 6.20194 3.06037
21.5422 6.24086 3.08934
18.9933 5.85155 3.03949
20.7917 6.63341 3.3036
19.9026 5.8375 2.99102
17.8347 5.7831 2.94494
16.8125 5.64851 2.92289
17.7529 6.11255 3.20327
16.828 5.98762 3.16578
18.5624 6.11881 3.16738
18.8072 6.25201 3.32656
18.1349 6.16344 3.35939
18.185 6.0067 3.16369
17.4973 6.41202 3.4405
18.0221 6.21239 3.27365
20.3503 6.02173 3.33553
18.7683 6.0776 3.22736
18.2722 5.90594 3.28688
18.0417 6.07075 3.41934
16.701 5.71691 3.16729
17.4164 5.82734 3.21963
16.4961 5.62885 3.18373
17.9759 6.41441 3.58728
16.7133 6.19574 3.49928
17.1145 6.19508 3.50204
16.2338 6.28241 3.64694
16.9591 6.42123 3.60522
17.3955 6.65133 3.75115
16.6439 5.71403 3.37322
18.535 6.9705 4.02402
17.6848 5.85351 3.40663
16.8927 5.91119 3.44676
18.142 6.00422 3.57029
16.707 6.01699 3.61025
17.936 6.28546 3.77707
18.1613 6.27906 3.77499
15.6814 5.78198 3.5906
16.953 6.25522 3.77387
15.672 6.51272 3.94346
16.6757 6.18765 3.88196
15.2708 6.22823 3.84917
15.4605 6.05291 3.81782
15.0388 6.27923 3.72946
16.3179 6.75377 4.21115
14.7904 6.20715 3.96122
15.2518 5.9621 3.84006
16.5944 6.45154 3.97732
15.1194 6.01791 3.96341
16.7413 6.4878 4.15698
15.9489 5.91193 3.81315
16.6742 6.55206 4.26708
16.7045 6.75276 4.39156
16.0762 6.6064 4.27457
15.8325 6.17577 4.18733
15.0211 6.49697 4.18108
13.0911 5.62084 3.79706
14.6742 6.74419 4.46719
15.1833 6.88566 4.60219
13.645 5.89388 4.03013
14.6851 6.48299 4.37069
14.5132 6.15817 4.18278
13.3207 5.95566 4.0343
14.7097 6.74099 4.72213
13.3695 5.64271 3.94948
14.4519 6.46325 4.44253
14.2582 6.33116 4.27712
15.5582 6.82396 4.92497
15.4037 6.40928 4.56801
15.2945 6.64608 4.77176
14.7079 6.5612 4.62292
14.2313 6.2273 4.57377
14.2743 6.3558 4.52854
13.9528 6.38493 4.5243
12.5095 5.85669 4.37266
13.4345 6.19767 4.47367
13.2678 6.24148 4.62655
13.2601 6.28129 4.55087
12.5546 5.77983 4.30429
12.4069 5.93407 4.48615
13.6127 6.54626 4.83656
13.1991 6.26687 4.64394
12.3081 6.39986 4.92937
13.2225 6.23012 4.77924
12.7614 5.97879 4.50442
14.8698 6.46178 4.87427
13.1249 6.57623 5.00394
14.6918 6.83153 5.1383
12.5144 6.12815 4.75086
12.4847 5.84789 4.57891
12.338 6.04649 4.73504
13.11 6.50656 5.16719
13.7818 6.77158 5.30899
11.2969 5.72644 4.5991
12.6967 6.58953 5.11713
10.8291 6.2156 4.97995
11.0865 6.21425 5.09168
12.2853 5.97826 4.95375
11.9724 6.40163 5.07753
11.6606 5.76751 4.76653
11.6144 5.51657 4.51351
12.8649 6.35153 5.05306
11.7533 5.96231 4.90795
12.4426 6.27867 5.1994
12.7964 5.86072 4.93099
12.9996 6.83789 5.56914
12.5312 6.11114 5.06653
11.3398 6.00095 5.1518
12.6797 6.35949 5.25818
11.4926 6.08026 5.19156
10.8293 5.79382 4.88538
12.2214 6.7943 5.94139
12.2155 7.05769 6.08759
11.8475 6.85419 5.81622
11.0029 6.49776 5.70313
11.4018 6.54865 5.84013
12.3229 6.95139 6.33196
12.1175 6.3343 5.51643
12.5721 6.48671 5.6295
12.0952 6.67448 5.63938
11.3146 6.12392 5.36218
11.4528 6.17189 5.62209
12.7707 6.59382 5.79786
11.8269 6.39334 5.95515
12.0794 6.77215 5.88368
10.4432 5.94496 5.59432
10.8418 6.52758 5.94953
11.2332 6.44317 5.94571
10.4374 6.32906 5.69287
10.2517 6.56752 6.08386
10.9423 6.99414 6.4077
10.9693 6.38534 5.7719
9.70522 6.53082 6.35782
11.2076 7.02311 6.70147
11.6808 6.74201 6.18555
11.6153 6.72374 6.24848
11.3111 6.57189 6.02574
10.7559 6.65114 6.46862
11.6278 6.68013 6.16253
11.2956 6.56812 6.36132
10.6002 6.34089 6.16607
11.33 7.00887 6.86572
10.2311 5.75813 5.55447
10.4543 6.66613 6.55573
9.92693 6.06787 5.91554
10.916 6.63729 6.55033
10.7887 7.01149 6.79115
9.89451 6.37086 6.24775
10.3037 6.93732 6.83395
10.4366 7.03929 6.83109
9.72203 6.88058 7.06787
10.2859 6.64655 6.7325
10.4834 6.64389 6.58161
10.5553 6.31578 6.25453
10.4471 6.60547 6.70906
9.88084 6.36624 6.59946
10.7106 6.86211 6.91099
10.8999 6.47512 6.79204
11.4334 7.26144 7.04051
10.6576 6.52212 6.75528
10.0828 6.05048 6.38767
9.64904 6.45358 6.98421
10.2391 6.68476 6.64707
8.97979 6.30292 6.72581
9.99366 6.7239 7.19562
9.91782 6.45843 6.44847
9.07273 6.52795 7.00471
9.08136 6.70479 7.23233
9.46487 6.47598 6.84935
8.96036 6.02748 6.73156
9.66769 6.45539 6.90189
9.95053 6.61466 7.22443
9.92132 6.52872 6.97593
9.91026 6.13222 6.73444
10.6954 6.6593 7.18171
10.6225 7.49369 8.12644
10.19 6.70089 7.3005
9.82674 6.73162 7.41074
10.3571 7.15365 7.71264
9.13758 6.23032 6.90845
9.32508 6.5365 7.32762
8.32109 6.50207 7.23216
8.56412 6.35686 7.38888
8.32877 6.42572 7.25993
8.94921 6.71356 7.43349
8.77155 6.44925 7.2772
9.37007 7.11129 8.28944
8.95256 6.43517 7.44015
9.66873 7.37246 8.12433
9.5568 6.7543 7.83768
9.3163 6.54816 7.64277
9.1867 6.98816 8.38348
10.0877 6.90948 8.04014
10.1111 7.17775 8.06671
9.45729 7.06373 7.93255
8.63562 6.43906 8.03958
8.6017 6.59643 7.55659
9.08721 6.92725 7.74953
8.56328 6.48364 8.06501
8.56089 6.83087 7.95077
8.50082 6.98736 8.11174
8.56579 6.80101 7.96712
7.75631 6.5124 8.06352
7.99366 6.47 7.97929
8.5537 6.48821 7.66426
8.51701 7.1007 8.75321
8.00065 6.21151 7.45678
8.88957 7.00493 8.31975
8.84386 7.02399 8.81604
9.31692 7.29123 8.8472
9.22492 6.92025 8.40123
8.79697 7.0592 9.00195
9.01155 7.30209 9.04716
8.77991 6.81603 8.36656
8.21432 6.72761 8.70597
8.12657 6.52659 7.88146
7.72097 6.60553 8.50092
7.91548 6.81864 8.52888
8.29035 7.28022 9.19726
7.43336 6.4915 8.18141
7.77181 6.57469 8.51504
8.36671 6.90522 8.71095
8.62165 7.62498 9.73058
7.83601 6.67561 9.00447
8.49811 7.02335 8.90363
9.00096 7.07435 9.42318
8.9212 6.87216 8.66266
8.49267 7.03613 8.72038
8.35162 6.51823 8.44337
8.51192 7.08423 9.31763
8.91569 7.19245 9.1463
7.78571 6.92916 9.366
7.99293 7.15316 9.61808
7.77322 6.43446 8.60436
7.74784 6.88975 9.11596
7.64715 6.7295 9.13473
7.40206 6.67691 8.79897
7.35055 6.42207 8.80514
7.49043 6.7472 8.86419
8.06999 7.73122 10.2503
7.71138 6.703 9.28572
8.30502 7.23537 10.0566
7.84278 6.60338 9.1821
7.81969 6.75316 9.4321
8.31015 7.06231 9.38272
8.77497 7.26007 9.81641
8.16344 7.43481 10.2972
8.2527 6.93635 9.56029
7.89563 7.11775 9.55107
7.61631 6.80888 9.47464
7.2406 6.99356 10.0281
7.93351 7.22343 9.92663
7.0651 6.57256 9.18815
7.15594 7.10102 10.11
7.33842 7.00594 10.0558
8.1136 7.52502 10.6305
7.36021 6.92343 9.84204
7.65299 7.03748 9.76727
7.36066 6.98315 10.3527
8.24145 7.60656 10.5924
7.47447 6.78709 9.94226
7.91358 7.03999 9.79376
7.28361 6.4689 9.41746
7.41355 6.4583 9.27202
7.36533 6.80329 9.83295
7.88299 7.2591 10.957
7.66741 7.33174 10.6252
7.9285 7.70364 10.742
6.98341 6.96995 10.1557
6.62287 6.4457 9.42593
7.00982 7.02988 10.2994
7.15734 7.52505 11.5419
7.11009 7.01363 10.3112
6.6832 6.872 10.1179
7.16567 7.22661 10.3528
6.45529 6.92695 10.9715
7.51449 7.16738 10.8613
7.49745 6.97217 10.6504
7.06997 6.71215 10.1933
7.69544 6.90851 10.3088
6.81607 7.02847 10.806
7.35167 6.90942 10.3297
7.10261 7.44976 11.1123
7.02485 6.93576 11.1261
7.07242 6.72595 10.6266
6.83059 6.40541 10.0551
6.6369 6.89662 10.3857
6.27277 7.05517 10.8628
6.48265 7.02277 11.2412
6.83836 6.9322 10.7631
6.71602 6.84287 10.1763
6.58332 7.19134 11.5287
6.58412 7.07849 11.2986
6.6457 6.54728 10.1374
7.17649 7.47033 11.4915
7.20617 7.32997 11.5657
7.00144 7.43715 11.8233
6.68333 6.74701 10.9629
6.78623 6.46376 10.3174
6.75591 6.84525 10.991
6.35564 6.39505 10.6683
6.82424 6.63567 10.7572
6.45769 6.79744 10.7861
6.69298 6.75764 10.9476
6.29904 7.21276 11.5776
6.26533 7.20291 12.0874
6.77835 7.57795 11.9535
6.4696 6.62174 10.9508
6.31129 7.0231 11.7278
7.27393 8.08469 13.0859
6.63446 6.61035 11.0466
6.99504 7.40947 11.8004
6.06141 6.31506 10.8396
6.53041 6.63252 10.917
6.93764 7.60944 13.0618
7.08097 7.38827 11.7528
6.49131 7.59691 12.8428
6.16656 6.71234 11.1092
6.41424 7.27327 12.5749
6.31435 6.4074 10.4189
6.22648 7.09145 12.1978
6.48217 6.98044 11.9383
6.73973 7.84078 13.2223
6.1457 7.55942 12.6681
6.26871 7.33357 13.1166
6.54727 7.55751 12.4472
6.27577 7.41603 12.9481
6.5854 7.50811 12.9081
6.44823 6.77663 11.7346
5.94173 7.04089 12.0721
5.93389 6.71078 11.4554
6.08238 6.4216 11.1996
6.5937 7.35986 12.7099
6.68771 7.23006 12.3821
6.62104 7.22172 12.9781
6.47873 7.0015 11.9234
6.08114 7.15043 13.0783
6.24515 7.49342 13.6097
5.83463 7.10905 12.4823
6.11251 7.48367 13.1355
6.18188 7.55277 13.4761
6.04083 7.32782 12.727
5.79449 7.21656 13.0408
5.64023 7.20362 13.2482
5.84065 6.99773 13.0202
6.20711 7.37878 13.6998
6.55853 7.37986 12.8528
6.16448 7.40561 13.0105
6.3828 7.53895 13.769
6.52615 7.78957 14.0031
6.48696 7.45 12.6844
5.85011 7.31087 13.3476
6.34548 7.55329 14.1205
6.12604 7.33711 12.8994
5.76962 7.22296 13.9707
5.84391 7.79538 14.0548
5.78841 7.52596 14.1077
6.0312 7.35375 13.7672
5.68052 7.25531 13.8622
6.41968 7.48167 13.5137
5.45232 6.79981 12.664
5.98099 7.32673 14.3144
5.87201 7.57257 13.3818
6.01236 7.40042 13.9472
6.11204 7.78524 14.2318
5.91437 6.70443 12.7442
5.78479 6.92335 13.235
5.93691 7.60887 14.2563
5.84317 7.5023 14.2512
5.97059 7.7617 15.0939
6.05932 7.91936 15.0313
6.04106 7.43086 13.743
5.52189 7.07162 14.4858
5.88087 7.58876 14.6081
5.71689 7.65731 14.4335
5.8042 7.49964 14.3254
5.31319 7.06057 13.9433
5.52039 6.86255 13.0458
5.88146 8.1729 15.9899
5.65398 7.44807 14.5585
5.40586 7.26651 14.7913
5.87143 7.19768 13.2317
5.62464 7.40695 15.0578
5.61615 7.04252 14.2001
6.069 8.25612 15.8094
5.59237 7.59085 15.7069
6.11835 7.4681 13.895
5.25746 7.25218 15.2629
5.95208 7.63608 14.7895
5.78486 7.54441 14.922
5.74471 7.20873 14.1873
5.58851 7.92007 15.6384
5.34406 7.51404 14.9712
5.49161 7.64505 15.1125
5.15018 7.35916 14.9918
5.43811 7.03288 14.0353
5.26685 7.12915 14.6792
5.56715 7.86971 15.9638
5.80654 7.83983 15.7084
5.80304 7.91579 15.7074
5.44506 7.47779 15.3876
5.49537 7.28381 15.4006
5.68034 7.45584 15.1221
5.5503 7.67774 15.7401
5.63574 7.13187 15.0162
5.21705 6.89136 13.7757
5.30959 7.42314 15.5281
5.3083 7.86526 15.8922
5.44864 7.7977 16.6357
5.66844 8.40635 16.8132
4.79376 7.73293 16.88
5.35724 7.5634 15.3766
5.10842 7.44198 15.8354
5.06262 6.96504 15.7228
6.18885 8.36792 16.9287
5.51564 7.77603 17.0281
5.70229 7.57367 15.3478
4.9986 7.48839 16.3365
5.40657 7.6555 16.3595
5.37536 7.76706 16.7089
5.75278 7.65351 15.5112
5.64177 7.79617 16.9708
5.33255 6.97726 15.2954
5.14661 7.55608 16.1204
4.83422 6.78455 14.438
5.49396 8.03932 16.4004
5.23577 8.1897 17.2149
5.10419 7.62397 16.7395
4.83743 7.43893 15.9471
5.16694 7.5779 15.5031
4.43215 7.42813 17.3197
4.94848 7.22941 15.8206
4.95187 7.30208 15.7379
4.96739 7.71654 17.3191
5.32636 7.78596 17.2669
5.38535 7.74442 16.9328
4.95556 7.18686 15.5906
5.25883 7.30693 16.2578
5.31703 7.69073 16.6146
5.114 7.68451 17.786
5.513 8.15547 17.7156
5.42592 7.44844 16.2493
5.06379 7.73648 16.8876
4.92619 7.05358 16.1052
4.99345 7.69069 16.9539
5.05991 7.4764 16.4575
5.09339 8.14198 18.0147
5.08779 8.17471 18.8131
4.91351 7.63322 17.47
4.86796 7.27838 16.4943
5.44592 7.92596 16.6808
5.12692 7.60338 16.9837
4.89927 7.21473 17.1258
5.00253 7.51868 17.0014
5.42793 8.77814 19.7891
5.0137 7.72511 17.8117
4.95655 8.1366 19.9655
5.93169 8.05606 17.8184
5.26682 7.96574 17.2258
4.68962 7.64295 17.5479
4.66913 7.52769 17.4369
5.20823 7.81287 17.6911
4.76201 7.86742 18.7515
4.95637 7.98372 18.3507
4.99817 7.74173 18.3892
5.05755 8.19365 18.7328
5.10921 7.85475 17.9085
4.72731 8.07493 19.4088
4.88988 7.92144 17.8072
4.98044 7.83348 18.0732
4.79751 7.99992 19.2152
5.23413 7.88757 18.694
4.95052 7.92493 18.9695
4.84198 6.95205 16.6204
4.85185 8.06552 18.2974
4.84299 7.46617 18.2587
5.03546 8.05181 18.8825
5.02657 7.75523 17.3903
4.60417 8.05894 20.0803
4.71423 7.71914 18.7565
4.69539 8.49577 19.3084
4.51441 7.65733 18.0577
4.75771 7.23725 17.1721
4.76121 7.52187 18.1716
5.00877 8.11659 19.044
4.61328 7.99875 19.4541
4.60863 7.86531 18.9479
4.54308 7.27122 17.2436
4.31408 7.56744 19.101
4.91596 8.18503 19.7882
4.63834 7.45212 18.3552
4.60833 7.71612 17.5623
4.39692 7.42209 18.946
4.50635 8.08685 19.9074
4.75658 7.92874 20.2812
4.81872 8.37075 19.6103
4.67182 7.86773 19.9958
4.87465 8.59568 21.1278
4.78996 8.03392 19.5002
4.95632 8.6314 21.6176
4.81094 7.6523 18.3234
4.46041 7.93247 19.5775
4.66846 7.77924 19.4024
4.49182 7.34336 17.524
4.44945 8.10772 20.4839
4.67626 7.36779 17.9674
4.54372 8.36592 19.9512
4.13074 7.3571 19.416
4.87811 8.15378 22.4563
5.2608 8.69606 22.1527
5.01433 8.24108 19.0039
4.48356 7.96471 19.4052
4.66659 7.99937 20.751
4.74454 8.13207 19.21
4.3286 8.14115 20.7644
4.58767 8.75843 22.0029
4.21133 7.54827 20.2136
4.53815 8.25595 20.8108
4.75822 8.00743 20.1852
4.47218 8.13092 21.2332
5.03332 9.23527 24.3412
5.01837 8.81221 21.4307
4.69505 8.43588 21.7336
4.68339 8.22569 21.6629
4.73552 8.36212 21.24
4.81159 8.48977 21.4797
4.37967 8.03275 22.243
5.14082 8.30582 23.1133
5.05909 9.75062 22.749
4.48457 8.34043 20.8679
4.13256 8.03282 20.8867
4.38804 8.21783 21.1793
4.41508 8.27824 22.8972
4.87567 8.55075 21.8457
4.50437 8.11581 20.2139
4.33629 8.31048 23.1181
4.66629 9.77386 23.7055
4.48068 8.59507 23.6965
4.79754 9.174 23.9007
4.69739 8.3683 21.5323
4.47908 8.40327 23.5287
4.23454 7.46504 19.3481
4.41897 8.72284 23.396
4.50485 8.32852 22.6612
4.55633 8.28024 22.6921
4.87568 9.65936 23.4101
4.66909 8.61794 23.1344
4.37604 8.656 23.7067
4.5177 8.09015 20.7526
4.02118 7.95727 21.5104
4.24391 7.90969 21.3765
4.5687 8.20766 20.7369
3.99127 8.06373 23.4373
4.43669 8.84116 23.0907
4.07432 8.17338 22.2076
4.21082 8.43007 23.3323
4.55436 8.29478 22.8526
4.43237 7.87421 21.7587
4.60592 8.70189 23.0522
4.22616 8.19439 23.2392
4.39654 7.65128 19.9369
4.22152 8.47273 24.2673
4.58932 8.17885 21.4082
4.53762 8.29643 21.5917
4.23311 8.83089 24.6566
4.44444 7.91673 21.6513
4.12011 8.23511 22.9249
4.30607 8.73206 23.5405
4.51169 8.7571 22.5734
4.052 8.36365 24.7714
4.50564 8.63842 24.0142
4.36848 8.45988 23.004
4.43783 8.53124 22.7287
3.81716 8.00579 23.751
4.2676 8.22886 24.0354
4.48112 8.21518 22.0154
4.16078 8.14237 22.7827
4.2264 8.97479 24.9811
4.42515 8.70461 23.3855
4.46062 8.67764 23.5457
4.15928 8.29575 23.3059
4.34904 8.20635 23.4228
4.08717 7.29461 21.2157
4.32764 8.16077 21.9846
3.91855 8.21635 24.3441
4.18195 8.68489 23.3777
3.91377 8.24776 24.8778
4.34648 8.45029 22.8095
4.06139 8.43928 23.6714
4.10708 8.30993 23.8864
4.08087 7.94847 23.8218
4.21623 8.23359 23.1876
4.23981 8.70376 24.2608
4.14612 8.37219 23.1198
4.04434 8.36081 24.0526
4.32646 8.52116 23.5234
3.87175 8.12273 23.6736
4.25642 8.64448 24.7609
3.73512 7.80507 23.5424
3.97581 8.11358 23.6424
3.87305 8.11009 24.4369
4.42878 8.64345 24.3781
4.24603 9.73599 26.9453
3.95225 7.44143 23.0107
4.0525 8.85421 24.9366
3.81478 8.08215 24.6785
4.12808 8.67749 26.8907
4.51669 8.48164 24.1663
4.24349 8.46223 24.0296
4.0135 8.22913 22.7822
3.71269 8.20599 24.0498
4.08022 8.3228 24.3538
4.02026 9.21863 26.8643
4.24639 8.3976 24.7934
4.26237 8.28547 22.9251
4.03615 8.90148 26.2426
3.98364 8.69427 26.3075
4.12507 8.73369 25.209
4.23847 8.45819 22.5645
3.85986 8.29586 24.6145
3.85299 8.01847 24.7996
4.18809 9.11966 26.4435
4.09528 8.39003 25.0847
4.13579 8.82179 24.6276
3.76339 8.22958 27.4627
4.52955 9.18362 25.5085
3.99477 8.70041 27.2544
4.16405 8.42835 25.2696
4.00725 9.0603 26.4082
4.15093 8.40148 24.5248
3.83156 8.47317 25.5738
4.30019 8.9897 25.3296
3.9464 8.6364 26.1915
3.80511 8.66674 28.9655
4.63384 9.26371 26.8038
3.76522 8.56583 26.279
4.05807 8.01989 23.7101
3.9432 8.04739 25.5402
4.0656 8.65359 25.5417
3.92549 8.70463 24.2419
3.71442 7.83175 26.7544
4.04748 8.85334 26.0495
3.7208 8.39338 25.3472
3.92812 8.36008 27.6377
3.96313 8.05712 25.0557
4.16505 9.31705 26.2961
3.86038 8.77557 25.177
3.68017 8.19364 25.9027
3.90183 8.5413 28.7059
4.51881 8.88966 25.5734
3.88873 8.75191 27.0512
3.88112 7.80229 23.8317
3.95707 8.95947 24.7652
3.73593 8.96176 28.7483
3.97359 8.55432 26.5581
3.95267 9.35168 28.703
3.80608 8.32667 29.0312
4.28397 8.76615 25.0858
3.75179 8.30173 25.3638
3.46275 8.64993 27.8713
3.86277 8.66127 27.7102
4.11415 8.95531 26.5431
3.67445 8.56966 27.021
4.00957 8.55448 25.5722
3.60723 8.16361 25.6402
3.71074 8.55239 27.6696
3.77892 8.56267 27.016
3.8581 8.79005 27.2411
3.80648 8.02874 27.4281
4.03162 8.20568 25.8066
4.01368 9.03533 27.0619
3.94156 8.8003 29.8588
3.98135 8.65117 26.8798
3.82462 8.714 26.4352
3.66615 8.95794 27.487
4.00836 9.36541 30.3806
4.23359 9.12033 28.405
3.87084 8.26172 27.2975
3.71797 8.06794 25.7651
3.70662 8.70812 26.8396
3.8012 8.41421 26.9206
3.79229 8.04468 24.7872
3.54588 8.27165 27.0426
3.80926 9.10069 26.8651
3.59772 8.31666 28.0846
3.94507 8.98452 26.0912
3.67311 9.19614 29.7102
3.94475 9.05839 29.3868
4.04082 8.63175 27.6204
3.92165 8.36252 28.4294
3.90568 8.62739 28.0707
3.58509 8.67411 28.5388
3.79681 7.90908 23.7041
3.77972 8.78052 28.0048
3.49076 8.59827 29.3691
3.99566 9.50069 31.15
3.79844 8.40931 27.6478
3.64364 9.08645 28.7004
3.70151 8.69029 26.7464
3.52008 8.95222 30.5954
3.98162 8.81927 27.6476
3.59303 7.40041 24.4364
3.44493 8.79486 29.5625
3.88485 8.53785 27.0166
3.73991 8.60835 26.5647
3.58955 7.88039 27.2878
3.66901 8.14849 27.0181
3.69374 8.55958 27.9618
3.78406 9.44765 27.7981
3.52007 8.54599 28.6573
3.60631 8.35762 29.3464
3.5295 8.19571 26.0518
3.53081 8.55708 30.5839
3.91013 7.94816 23.5426
3.17973 8.09298 28.2413
3.74248 8.98865 28.1896
3.55946 8.0171 26.2036
3.42229 8.35378 29.0504
3.88794 8.98465 30.2197
3.7264 9.21497 28.4979
3.57389 8.4979 28.1709
3.58444 8.71179 30.6548
3.87063 9.26556 29.9479
3.7821 9.12701 30.8512
3.89956 8.82972 29.0461
3.66368 7.76969 27.151
3.76357 9.46546 28.5844
3.39247 8.39925 29.4472
3.66382 8.66244 29.1354
3.75697 7.70706 26.4024
3.47085 7.7809 26.2185
3.57844 8.89212 28.9803
3.47679 9.30346 30.6132
3.69465 8.27259 26.9269
3.22594 8.42116 29.7858
3.75248 8.97006 30.7116
3.85255 9.14851 30.6561
3.88743 8.82871 28.8648
3.61289 8.77732 31.1633
3.78431 8.6162 29.3957
3.41134 8.23189 30.0308
3.78697 9.75413 31.5909
3.66448 8.59307 28.4858
3.71372 8.7391 28.5802
3.52406 8.33902 30.2421
3.82268 9.38531 29.6722
3.53441 8.63763 29.6149
3.60335 9.18699 32.4043
3.70081 8.41207 29.0548
3.60737 9.26725 31.4509
3.56873 8.32824 32.5558
4.00516 9.75134 30.8341
3.60323 9.61984 30.2203
3.56565 7.80446 25.8216
3.26588 8.2879 32.0179
3.82666 8.96174 28.6608
3.67767 8.50681 28.1029
3.83614 10.1814 35.0358
3.86711 8.79142 29.3701
3.60388 8.22261 28.0426
3.2953 8.99279 31.7322
3.79436 9.14207 30.1785
3.4821 8.36599 29.182
3.38636 8.52544 29.3563
3.45845 7.93825 29.3591
3.50001 8.28027 29.6437
3.72677 9.01113 29.101
3.29819 8.38723 29.9246
3.57292 9.08683 30.5809
3.47925 8.51721 30.459
3.75199 9.30938 29.9195
3.5125 9.28896 30.8784
3.35966 8.42258 28.7872
3.3411 8.85343 32.6383
3.67484 8.60349 27.8742
3.32425 8.6002 31.7334
3.56162 8.31905 31.8215
3.75623 8.63433 31.8262
3.7877 9.40336 29.8728
3.48392 8.99952 28.6115
3.43496 8.60874 32.6182
3.66396 8.82276 29.7739
3.60825 8.75888 31.6626
3.49534 7.91384 28.8611
3.26724 8.56388 29.3502
3.33243 8.04456 29.2105
3.56193 8.42497 30.606
3.42409 8.59673 30.3743
3.56227 9.14526 31.8812
3.55685 7.85543 28.152
3.39788 9.4713 31.722
3.28798 8.61309 32.6923
3.72877 9.37865 32.5308
3.53396 8.18053 28.5336
3.35233 9.00804 30.568
3.49418 8.37204 30.9545
3.45576 8.6951 30.2534
3.36339 8.44771 29.9681
3.46159 8.71876 31.239
3.63275 9.07361 33.2277
3.49262 8.24727 30.469
3.50255 9.23995 30.1381
3.37394 9.07657 30.5157
3.21202 9.65979 33.625
3.51918 8.93281 33.5427
3.65031 8.73747 31.8433
3.43609 8.82887 31.394
3.43144 9.17037 32.0759
3.37321 8.80092 28.6594
3.18726 8.69828 31.1841
3.52056 8.53951 32.7981
3.6212 8.79977 30.9187
3.50059 8.65474 32.6571
3.68009 8.93523 33.7549
3.59797 9.81478 34.0013
3.53742 8.90373 32.2944
3.65959 8.33101 31.065
3.5151 8.86562 29.8556
3.33872 8.91579 33.0899
3.42329 8.41273 30.7495
3.33496 9.33435 35.0734
3.82404 10.0516 34.989
3.59832 9.0126 31.5611
3.2151 8.71527 32.9241
3.47008 9.84298 37.74
3.69288 9.47521 33.3373
3.56919 9.644 33.115
3.48941 8.94392 30.0258
3.15527 8.59487 32.1811
3.39023 8.76315 35.0522
3.79719 9.75186 32.7657
3.68344 8.63609 33.4334
3.5182 9.65383 33.4292
3.58437 8.64475 30.5321
3.20136 8.69513 33.9965
3.70947 8.53406 32.1665
3.61087 8.79673 30.9384
3.41833 9.01985 33.7488
3.29231 9.02125 30.5182
3.30933 8.49023 31.2145
3.28597 8.87913 34.5478
3.46214 8.79769 32.0851
3.30906 8.64369 30.5141
3.33638 9.04171 32.9879
3.51475 9.3113 34.6445
3.40581 8.77854 30.6312
3.20054 8.60797 31.4151
3.36109 8.53996 34.8646
3.64605 9.49279 32.5039
3.38874 9.26843 35.6845
3.94301 9.05474 31.9991
3.23464 8.3491 30.8013
3.2827 9.26671 32.6553
3.22488 8.23388 33.5685
3.53815 8.65865 33.287
3.54908 9.91031 37.2786
3.55988 9.52977 34.1914
3.22451 8.57185 33.4512
3.42326 9.33127 33.2239
3.17617 8.62494 32.0414
3.1863 9.14091 30.7671
3.1015 8.65563 33.0752
3.44158 8.79987 32.1355
3.37502 8.7338 32.9199
3.45517 8.96844 33.3097
3.5351 9.11884 33.6733
3.47447 8.90516 32.7654
3.39763 8.0312 30.3996
3.22357 8.3772 31.8584
3.225 8.66024 32.9432
3.3649 8.48261 31.1485
2.94209 7.73349 30.308
3.13334 8.8109 33.9602
3.52488 8.89472 31.53
3.12979 8.92755 34.0699
3.29465 8.63388 30.5425
3.08739 8.5749 31.8086
3.37036 8.92597 33.5822
3.32292 9.12812 33.4575
3.32788 9.24092 36.5716
3.59828 8.79522 33.7835
3.52774 8.56329 30.8328
3.34505 8.70492 32.0976
3.44267 8.91037 34.2003
3.49762 8.89253 31.9298
3.36605 9.2195 38.1324
3.90424 9.2382 32.5912
3.33276 8.78013 30.5081
3.15037 8.34891 32.9612
3.34929 8.82737 33.0745
3.1631 9.00244 37.1776
3.45332 9.60273 34.6683
3.26786 8.76862 31.5731
2.98457 8.78239 34.7214
3.40957 9.14179 33.8066
3.30048 8.08098 28.6389
3.02493 8.60792 32.3995
3.23533 8.42655 31.829
3.2559 8.58739 33.8731
3.38427 8.84498 31.6915
3.30239 9.0229 35.202
3.42743 9.19516 34.5438
3.24631 8.36275 29.9801
3.13463 8.70766 33.9814
3.39006 8.4236 32.996
3.23439 8.69685 30.9282
2.96569 8.40326 33.0314
3.19437 9.55195 33.4455
3.11298 8.52412 34.8298
3.14155 8.51652 32.0174
3.11895 7.79295 30.5594
3.04865 8.55701 34.2611
3.2855 9.5177 32.7533
3.13932 8.69321 36.4979
3.58265 9.01481 35.6819
3.38946 9.31912 34.3633
3.45835 8.4687 31.3562
3.19218 8.0017 32.41
3.29 8.50594 32.2738
3.37581 9.50889 35.6061
3.45969 8.8519 33.9023
3.36172 8.94106 33.0636
3.1456 8.81649 34.0219
3.30574 8.95777 36.2759
3.48276 8.54156 31.7388
3.00937 9.0164 33.9676
3.24237 9.11751 34.7411
3.08813 8.6067 31.9
2.96001 8.5688 34.3204
3.15821 8.81022 30.7361
3.10546 8.49826 32.5353
3.08775 8.03536 32.7825
3.18588 9.44127 34.564
3.33467 7.79874 32.6234
3.20008 8.55308 34.1462
3.40725 8.95967 33.6988
3.20901 8.3677 29.9603
3.10957 8.8812 35.7007
3.28052 8.55209 33.8771
3.27044 9.54641 36.6603
3.43601 9.08654 32.5742
3.06796 8.58952 35.2308
3.07708 8.54403 32.8123
2.97687 8.56095 35.0836
3.14428 8.77448 33.263
3.14601 9.04416 36.172
3.45986 9.28027 36.0704
3.15138 9.0743 35.2118
3.20823 9.11986 34.3159
3.18248 8.69411 35.1272
3.31217 9.52803 37.6339
3.35025 8.52833 31.2508
3.16576 9.31275 35.9228
3.42365 8.79477 34.0696
3.48296 9.16792 35.286
3.41958 9.13213 35.6731
3.41939 8.84047 34.7546
3.14138 8.47457 30.1685
2.99348 8.12189 32.6278
3.09401 8.79497 34.344
3.21073 8.56351 33.8679
3.0145 8.65191 34.5023
3.02535 9.02378 33.8671
3.10194 8.85251 30.784
2.80109 8.23736 33.1904
2.95117 7.77438 30.186
3.06941 8.8634 36.3718
3.49662 9.19073 33.2146
3.30497 9.07786 37.6557
3.57655 8.54046 32.4959
3.05378 9.05868 38.6112
3.56775 8.45603 31.3545
3.29188 8.42823 34.2574
3.26154 8.49203 34.4305
3.3657 9.40947 32.2691
2.92087 7.74613 33.0333
3.07116 8.73757 33.3027
3.04031 9.31552 36.3672
3.23124 8.63195 31.459
2.89608 8.41444 34.807
3.1572 9.21765 37.4743
3.29946 8.44476 30.175
2.94205 8.83804 35
2.9994 8.65775 32.5022
3.06387 8.49556 36.9794
3.40464 8.45117 31.1236
3.0603 7.99264 30.835
3.16825 8.56654 36.046
3.49413 8.73283 31.9668
3.01645 8.21526 31.992
3.13664 8.32921 35.4843
3.11529 8.50874 34.096
3.16734 8.48439 33.434
3.12946 8.75082 32.8086
3.00526 8.09404 32.0813
2.92722 8.43226 36.2167
3.18316 9.02026 33.3477
2.93828 8.56143 34.316
3.13327 8.56219 34.6099
3.29749 9.1677 34.0264
3.07329 8.3328 33.4559
3.16038 8.68576 36.422
3.31151 8.85896 36.5272
3.45405 9.40139 36.2725
3.34008 9.10414 32.3474
3.14112 8.41775 35.2354
3.35603 8.557 35.671
3.28173 9.55622 35.3671
3.28139 8.80514 35.6975
3.32938 9.6213 35.7369
3.36521 8.49 35.3639
3.31508 8.57178 34.1078
3.10393 8.53829 31.0106
2.84804 8.47415 35.6868
3.24462 8.8166 32.9322
2.83507 8.09111 33.4847
2.90716 8.66256 34.3307
3.13345 8.14973 34.3668
3.07171 9.49785 32.8658
3.03968 8.40547 33.6198
3.22741 8.95219 34.4119
3.07031 8.93722 35.4174
3.192 9.12344 38.6559
3.39248 9.26552 34.5094
3.32946 8.63801 34.8568
3.33669 9.19035 35.0782
3.2841 8.6196 35.9866
3.22957 8.0929 31.8799
2.9547 8.60193 33.7002
3.06906 8.81568 34.9438
3.11731 8.53257 33.1562
2.90376 8.59525 34.915
2.99677 9.42241 35.3531
3.14565 8.03285 32.9702
2.88144 8.29857 35.5357
3.14452 9.00784 34.756
3.20387 8.83483 38.2068
3.4876 9.08663 32.0438
3.0762 8.86172 34.4718
3.30612 8.63751 37.7379
3.44752 8.69685 33.656
3.12496 9.38424 34.7103
3.19584 7.78437 33.2922
3.08714 9.23625 37.7071
3.23965 9.00309 31.644
2.89353 8.33568 33.7502
2.96528 8.06735 33.6012
3.24994 8.82433 32.6492
3.04996 8.05842 30.7738
2.81923 8.59536 38.0671
3.22401 9.77678 35.3364
2.94428 7.70599 34.9868
2.8672 8.92385 33.9341
2.94988 8.18429 31.0895
2.80378 8.4095 35.6457
3.31097 9.00415 34.2169
3.15755 8.42316 37.1786
3.50655 9.21866 35.2704
3.29588 8.88853 35.6714
3.28572 8.79392 35.3433
3.18514 8.85566 33.7201
3.13212 8.97296 36.1947
3.34736 8.73688 35.0031
3.09942 8.64431 36.9765
3.18016 8.87558 34.1643
3.13405 8.13093 31.1565
2.74327 8.34131 34.8072
3.07784 9.0907 35.8416
3.12101 9.32787 36.0354
3.14131 8.18105 31.615
2.8026 8.32154 36.0287
3.11743 8.77483 31.5108
2.91884 8.2019 32.846
3.01582 8.09284 32.4509
3.06046 8.44381 36.7153
3.36377 8.90014 36.4991
3.41752 8.96463 33.8738
3.27538 9.02421 35.4488
3.33289 9.09868 33.5073
3.24428 8.97054 38.6962
3.17325 8.51885 34.1439
3.0005 8.30428 35.7169
3.24613 9.38379 34.6417
2.92047 8.26353 32.8915
2.92217 8.76804 34.6555
2.97815 9.28794 37.7008
3.26675 8.75255 33.9029
3.03431 8.61694 36.9348
3.31039 8.759 36.0847
3.14769 9.46786 36.5548
3.13102 9.50671 37.609
3.37348 8.70951 31.3305
2.95111 8.63848 37.2783
3.46412 8.84299 34.9284
3.25936 8.66739 36.164
3.14416 9.10442 40.3977
3.5367 9.84977 33.3908
3.01406 9.8701 38.9812
3.42017 8.37419 35.8646
3.16353 9.66945 37.1442
3.03086 8.94021 34.2096
2.88723 8.67108 34.9575
2.96068 8.44001 32.6886
3.05792 8.91198 38.2323
3.20306 9.02939 35.034
3.03736 8.94624 37.4069
3.21784 9.4082 37.5988
3.57959 9.2518 36.2979
3.22393 8.79929 39.1139
3.4721 9.96311 36.5986
3.39037 9.03191 33.9844
3.14739 0 0