# pn-170911/RbIIA-33-USNO-1280-1959.psd
# Power spectrum* (dif=0,1,2) (really just |FT|^2)
# NOTE: only the first half! (symmetric)
# weeks: 1280-1959
# 4 clock-days, 0 excluded
# PSD: 1441
16984.3 0.128753 0.00360827
60844.3 2.7641 0.00244197
620220 22.6571 0.00431263
195581 4.18855 0.00241734
43452.7 2.70575 0.00318377
35085.6 1.97379 0.00232423
30465.2 1.55188 0.00234093
34376.3 1.87629 0.00385102
11179.2 3.82773 0.00475842
15542.9 2.52339 0.00310147
9337.68 1.99509 0.0026223
6912.48 1.87602 0.00647536
9532.97 4.25863 0.00732407
6057.16 1.52536 0.0039332
3500.41 2.0666 0.0030732
2514.77 1.25238 0.00271756
5127.79 3.26673 0.0108058
2638.88 3.17217 0.010819
3827.41 2.93866 0.00446047
2641.54 1.24559 0.00302908
4340.87 2.83224 0.00510456
5703.72 5.14839 0.00952418
4334.02 4.7885 0.0114506
1856.47 1.13275 0.00352535
2211.22 1.99528 0.0095658
3193.7 6.11088 0.0172424
2036.39 1.715 0.00465537
1340.37 5.14602 0.0195728
577.719 1.05608 0.00478632
2192.66 3.55931 0.0190729
859.653 5.08248 0.0231329
926.73 3.69366 0.00775555
1447.54 3.86172 0.0126718
1597.11 2.99186 0.0200186
810.566 1.29145 0.0110509
784.32 2.18033 0.0245079
763.651 4.39758 0.0233909
385.369 0.272858 0.00696967
626.823 2.56406 0.0289537
355.363 1.46721 0.0188003
822.508 2.49447 0.028478
925.359 2.74361 0.0185631
758.134 7.339 0.0621363
412.11 2.0244 0.0208035
336.044 2.91005 0.022817
670.303 5.59987 0.0601923
384.179 3.87141 0.0440212
672.575 3.30383 0.0400517
341.812 0.952228 0.0141116
214.662 2.56099 0.035373
156.019 2.13625 0.0263118
284.975 1.79403 0.01983
186.445 2.7242 0.038165
90.9561 1.49325 0.02473
403.254 3.39505 0.044642
389.849 5.80036 0.103848
269.335 1.54337 0.0286389
297.258 1.19317 0.0102663
567.883 4.42743 0.0706896
315.686 2.28275 0.0543118
200.744 0.905986 0.0280884
334.083 3.53002 0.0625375
209.91 0.598733 0.0136865
426.105 2.53856 0.0541806
245.987 1.75412 0.0317558
336.185 1.89427 0.0386603
153.946 0.477487 0.016588
192.934 2.52747 0.0386551
276.079 3.87496 0.0940594
186.845 2.76247 0.0470715
283.777 5.38613 0.128014
366.001 3.33177 0.0758673
204.195 2.41379 0.058203
67.2535 2.60036 0.059016
191.56 3.08239 0.0872355
212.486 5.1359 0.158416
93.0708 1.96433 0.0665793
110.692 0.768428 0.0208265
177.412 1.90971 0.0547743
132.177 1.25731 0.0564652
165.829 2.66964 0.0870225
125.863 1.84076 0.0778037
65.4327 0.297996 0.00844788
125.126 1.18088 0.0487217
252.259 2.54895 0.0952797
283.165 3.79502 0.13552
175.9 2.77981 0.0776434
95.7387 2.15703 0.084682
142.882 2.0177 0.0886153
62.1142 3.30876 0.118861
130.738 1.90127 0.0951773
134.886 3.99888 0.180108
114.593 3.18944 0.133148
34.4198 0.639764 0.0276967
289.976 5.7297 0.252147
136.594 2.95145 0.128359
59.0835 0.848241 0.0252954
74.8094 2.21199 0.093776
103.814 1.22795 0.0611153
137.635 3.34492 0.153314
95.5849 2.0332 0.125505
97.9787 3.32848 0.155664
45.6523 3.70532 0.198478
126.182 2.68062 0.158654
79.8788 1.28803 0.0613939
126.825 3.1095 0.186714
40.6932 0.980224 0.0577038
17.1221 1.60759 0.101639
193.598 7.25426 0.365516
78.5545 4.26477 0.253808
110.799 3.14288 0.178183
68.037 0.770223 0.0381083
71.7055 3.36861 0.217436
20.1946 0.690614 0.0458417
51.8078 0.779235 0.0652064
109.961 4.92504 0.352509
140.025 5.53324 0.322351
40.2808 0.612356 0.042813
59.1938 1.13705 0.0719946
52.5553 1.41742 0.103211
79.5705 1.39021 0.0946679
92.1567 2.94299 0.230993
136.62 4.63578 0.373286
35.8359 1.16508 0.0885937
36.209 1.81963 0.104728
89.5008 3.02636 0.237348
102.149 5.73723 0.427557
17.5111 1.19573 0.0965746
110.092 5.11902 0.422593
28.6911 2.11318 0.138656
25.7409 2.32927 0.165331
35.5991 0.290052 0.0285836
52.3504 2.14949 0.178732
116.548 5.81899 0.460684
50.7478 2.12527 0.19356
20.9412 1.88874 0.163042
23.7885 2.95855 0.23575
54.7278 2.99322 0.290746
49.9737 1.67175 0.174382
40.3668 2.687 0.261915
66.6322 1.15814 0.0894814
43.4169 1.62271 0.160586
27.4325 1.34244 0.117589
31.7489 4.2055 0.451038
103.203 7.11741 0.721132
26.5089 3.37307 0.326493
12.5153 1.48889 0.166514
45.8396 1.06232 0.108214
30.7473 1.30011 0.147322
16.9769 2.08107 0.247763
16.8457 2.89589 0.306203
87.4101 4.89433 0.495045
27.6157 0.983289 0.088171
37.2178 4.30366 0.480096
36.943 2.90872 0.402582
42.6015 3.06501 0.313709
25.9144 1.39559 0.17377
14.886 3.43653 0.471449
12.5792 2.64807 0.355391
31.8161 0.771609 0.135851
50.1133 2.55307 0.321507
84.2927 3.82661 0.399609
74.156 3.76118 0.499376
55.8384 3.35546 0.375568
14.5377 0.770443 0.112854
46.6494 4.57713 0.648926
103.95 7.37325 0.92507
33.3557 1.53005 0.166153
8.79549 1.45737 0.212936
49.759 3.50974 0.441525
30.6796 2.72378 0.327904
21.3413 1.31913 0.253043
31.3208 3.23748 0.409496
22.1025 1.57264 0.257076
30.2205 0.858332 0.127339
61.4098 2.995 0.431104
17.2425 0.686533 0.0922423
34.5225 2.08496 0.354774
36.8877 1.73822 0.215439
28.3039 3.17415 0.438658
64.7017 5.95973 0.846493
24.3405 0.835118 0.15602
49.3455 2.97729 0.522268
17.4713 0.960927 0.207169
9.66657 1.16156 0.189038
29.3333 3.09685 0.502827
57.4434 4.03067 0.608821
7.82369 2.31441 0.323377
14.5243 1.31833 0.228057
14.547 4.87546 0.782025
10.9194 1.48854 0.307025
32.03 5.2756 0.911579
22.8562 1.7903 0.364894
43.3996 1.84765 0.322245
14.7224 0.87593 0.148953
24.0112 1.61264 0.311074
22.2153 2.18131 0.355467
31.8344 1.45068 0.27876
22.2942 0.405707 0.0591809
34.612 2.26207 0.413115
17.6046 0.870091 0.148133
28.9147 3.36814 0.601867
52.2439 4.50354 0.953849
30.571 2.90587 0.516688
30.8351 3.89597 0.883699
25.4385 3.99736 0.741855
9.97552 0.918707 0.203663
9.51929 1.86449 0.368508
37.3434 2.65372 0.498767
26.7215 1.77914 0.418702
34.121 3.66508 0.766255
27.8387 2.49069 0.548316
32.6354 2.32493 0.56928
13.8664 2.15485 0.458855
32.4534 4.7532 0.967228
46.6441 5.18414 1.05867
21.8731 3.58176 0.749882
16.8528 2.70083 0.592266
15.352 3.83854 0.877306
20.8298 4.81307 1.09054
40.8608 4.48713 1.00198
17.5829 3.486 0.77987
18.7337 2.04008 0.552206
1.53162 1.62194 0.353597
13.9006 1.56688 0.381381
23.9424 4.46122 1.01232
41.6455 4.14918 0.974324
8.10733 1.87728 0.578625
26.3736 4.54026 0.903071
25.31 4.98851 1.22198
6.29297 1.83632 0.464627
15.951 1.08849 0.245701
28.7275 2.91227 0.764359
22.9048 2.95213 0.639737
11.0595 4.48119 1.13875
10.0416 1.07139 0.387919
28.8871 3.28391 0.793621
12.876 1.32048 0.383392
15.4796 1.64106 0.478842
26.7574 2.5314 0.611196
37.1403 3.27871 0.876962
22.1546 2.39499 0.685838
12.243 1.66412 0.476949
14.5261 2.13916 0.510427
16.3447 4.04215 1.16184
18.9739 4.04437 1.07234
14.2466 1.96679 0.528906
22.2155 2.20657 0.647959
21.9431 3.43645 0.909746
9.18519 1.58061 0.598866
13.4729 1.06856 0.403516
27.2004 5.90338 1.6111
26.8077 5.21502 1.54875
10.0711 3.42684 0.928789
7.36912 3.79561 1.31886
22.8979 4.12578 1.23914
29.9742 4.12058 1.2649
16.5838 1.78858 0.429281
12.2708 2.67352 1.01781
18.6525 2.56978 0.763641
16.6509 2.1514 0.676604
18.9922 1.9476 0.563658
17.5219 2.41179 0.698578
19.9432 3.08452 1.00592
21.4768 2.2913 0.752593
10.1105 1.78872 0.527678
29.9027 5.33504 1.84428
9.66725 1.06638 0.503286
7.04609 1.6586 0.566045
12.6276 3.03383 1.13672
7.97238 3.25122 1.05714
14.3956 3.02906 1.1271
18.0545 5.13236 1.66906
13.2861 1.62537 0.776195
14.4326 2.06523 0.93058
13.5555 4.38419 1.4392
3.0018 1.78218 0.746258
17.4495 3.07998 0.861114
18.1465 4.12192 1.6759
24.6219 5.50561 1.66227
11.5216 2.85766 0.810715
20.677 6.95447 2.35247
3.26507 3.07869 1.21634
15.0565 3.68876 1.36556
17.7023 6.60129 3.09399
9.31384 1.34801 0.47572
19.9194 1.4481 0.444011
5.3388 0.89545 0.452031
21.5626 3.15002 1.06495
16.0011 3.08344 1.06179
15.5643 2.69805 1.37709
19.6699 4.26145 1.34845
3.24842 1.29005 0.456187
17.0639 2.56494 0.959338
18.1072 4.41211 1.64976
18.6356 6.45781 2.60259
17.4914 3.42522 1.30352
13.2335 3.65602 1.26668
12.5959 2.18315 0.979922
11.1036 2.72316 1.1651
22.5519 5.02642 2.27736
29.7461 8.37436 3.18576
6.6351 1.44977 0.629388
10.9689 2.53539 0.962288
6.12507 3.61533 1.84565
24.3259 5.77071 2.71979
16.1 3.32762 1.05582
9.39711 3.63161 1.7304
14.0693 3.22455 0.982163
6.47537 3.00518 1.32485
4.79129 2.04149 1.30872
18.0728 2.63026 0.89306
12.7374 2.24282 0.835697
14.2076 2.7584 1.34505
9.94486 1.50304 0.686565
4.6709 0.97747 0.714373
12.5246 1.63198 0.612803
10.5152 3.29215 1.48166
11.6232 3.82905 1.77557
8.82394 3.59278 1.41717
8.37011 2.68189 1.62276
8.46902 2.19897 0.969862
20.4593 3.94533 1.95589
7.03582 1.81377 0.936585
11.9939 4.44467 1.87805
16.5157 3.77354 2.06341
11.5176 2.79501 1.00684
16.1456 2.47125 1.13986
8.83157 3.67013 1.95684
16.3791 3.34892 1.50959
6.91685 1.58136 0.917474
11.1008 3.82257 1.96226
5.79145 3.1197 1.45501
4.13455 3.14773 1.54901
7.86743 1.06354 0.914509
10.3341 2.26152 0.992856
5.04946 2.40029 1.2075
12.6981 3.70563 2.09322
8.91877 2.70378 1.13213
17.2267 7.48437 3.80488
10.0826 1.71431 1.01134
22.8759 7.83813 3.40807
7.67929 2.99252 1.69623
5.18605 1.90655 1.06606
9.62366 2.02449 1.1199
19.931 5.52913 3.1954
9.76403 3.44711 1.53365
18.2639 3.49385 1.6582
8.56592 1.83967 1.12013
9.28969 4.96439 3.10251
11.2694 1.63966 0.887416
7.97627 2.37248 1.44109
9.54023 4.32078 2.6102
10.6638 5.09477 2.48058
9.8932 3.16492 1.31985
15.0927 4.87392 2.94421
12.8799 4.65175 2.69864
1.68732 2.77176 1.39072
6.63609 2.39363 1.72612
8.37595 2.88643 1.66972
5.43626 1.47902 1.16259
11.8228 4.3456 2.12446
6.40416 2.53593 1.57339
11.0369 4.2444 2.95256
7.25809 4.15143 2.26518
9.50169 4.04013 2.83603
9.19108 3.30379 2.92144
10.848 3.32265 1.36755
4.75602 2.53979 1.62128
10.6551 1.41177 0.74537
12.2444 2.9219 1.59469
8.00513 2.73256 1.97798
12.3671 4.09269 2.23172
10.8124 2.3864 1.33563
14.3126 4.58197 3.40774
8.24545 2.46424 1.28929
1.49997 1.03975 0.484861
9.08649 4.29751 3.17315
5.11972 4.34121 2.24338
10.2276 4.68018 3.1124
8.66869 2.53756 1.49
7.15556 4.85495 3.67985
13.6904 3.60485 1.89223
4.62318 1.23104 1.09502
3.98378 3.62824 2.24265
10.8701 3.62752 2.28059
6.40529 5.86607 3.81058
6.47423 1.77371 1.0712
6.20196 1.2129 0.890276
12.9007 3.84934 2.68628
14.063 4.54783 3.02207
3.88224 1.77766 1.72903
5.64548 2.21282 1.03643
1.89296 1.31255 1.03618
8.50208 2.50209 1.72931
14.7143 8.45011 6.30725
9.25274 3.92588 2.51914
11.8196 6.3488 3.8078
5.17036 3.42719 2.76268
3.22985 2.90788 2.41893
13.3069 4.55198 3.04745
8.16684 3.37 2.70133
5.03132 1.61376 1.39812
4.18932 4.82013 3.75641
9.85656 2.89049 1.95113
7.78192 2.56269 1.51481
5.98318 4.10409 3.16534
9.1105 6.29597 5.46565
5.95958 3.62524 2.05364
11.7914 5.50565 3.84623
3.3304 1.51593 1.34981
7.63105 3.17723 2.21591
7.58949 2.90205 1.24111
7.26861 4.30577 2.99083
6.53754 3.66981 3.35587
10.4654 3.81927 2.48732
4.13099 1.03956 0.895042
9.89296 4.89898 3.89429
3.63919 2.75757 2.73103
3.6044 4.86748 3.82401
10.6877 3.63081 2.71944
10.4265 4.13027 2.33555
4.18716 4.90762 4.78236
7.18229 3.35263 2.17987
5.41381 2.66045 1.86058
4.30546 2.79282 2.76927
3.15879 3.01834 2.30001
7.75152 4.4917 3.86179
4.8036 1.67875 1.53054
7.17446 3.32672 2.74608
10.9002 4.76428 2.96035
5.32084 1.07707 0.761997
5.16136 4.07412 4.77289
11.0449 4.28988 3.48974
3.75299 3.18193 2.4579
5.48517 5.38762 5.47977
10.0137 6.2904 4.91145
6.0446 4.33149 4.40885
9.07039 3.35215 1.73962
5.10949 3.89326 3.28162
7.41899 1.9975 1.7718
5.98359 1.72793 1.96661
12.2873 6.95357 5.71814
3.07505 1.59696 1.0059
7.15328 5.04027 3.94368
5.98269 4.94815 4.03297
2.86429 1.49385 1.15956
2.48844 1.07761 1.36045
3.1042 2.14335 2.17767
3.54802 2.79856 3.05436
10.2972 2.9456 3.87428
10.611 7.1275 3.9158
3.50783 2.96514 3.2405
7.48512 3.54296 3.28754
12.0939 4.90577 3.97025
1.58287 2.14892 2.43373
6.16227 1.25395 1.09324
5.13828 3.89942 3.54633
12.9375 4.73775 3.75727
4.57059 2.26257 3.23875
4.80618 5.6348 4.57749
6.62407 3.52013 3.13459
12.4934 6.66613 5.2857
1.21102 2.66742 2.25404
2.2451 2.34964 1.51392
3.48621 2.17435 1.94827
2.45341 3.11659 3.18863
6.03632 2.46778 2.19502
7.66303 6.24819 6.16979
3.11361 4.46267 4.72685
5.23144 1.30922 1.3582
5.28212 2.40587 2.03792
4.82734 1.39434 2.08038
6.37661 5.68453 4.1805
5.81372 3.50655 3.78593
2.46701 1.6583 1.8775
3.05805 3.81766 4.38509
7.75845 2.26911 2.0208
4.21835 3.72744 4.66076
10.0503 4.20446 3.71759
1.9084 1.02825 2.25114
5.55264 7.16054 7.04291
11.0538 7.15116 7.72563
7.31364 3.03999 3.82477
11.942 5.16716 4.23573
6.60389 3.62366 2.66662
3.86098 1.44525 2.10319
2.55857 2.69746 4.89927
17.9762 8.04142 6.15325
1.42412 1.95115 2.45214
7.59796 4.37546 3.92871
5.29561 3.6915 4.74089
2.37652 0.617062 1.58754
4.27583 1.92423 1.76923
8.4864 5.94499 5.47912
6.61872 4.24151 3.87505
4.11866 4.38047 4.60525
3.37308 4.82248 6.02046
7.91824 4.53226 5.29566
10.1716 6.39549 5.09679
3.86042 3.72778 2.95676
5.24386 3.31888 3.52473
2.74325 2.16064 2.00146
3.0183 2.94 3.49385
5.27186 3.46838 4.11953
4.97889 3.05403 4.26303
4.90308 5.53297 6.18588
8.62664 4.90955 3.82311
2.8993 2.61313 3.15497
5.22524 4.38886 5.07306
3.81963 1.56042 1.93799
6.04475 2.62404 3.65236
3.73074 1.60812 1.4995
6.86869 3.34237 2.7673
5.11067 1.94953 2.6617
5.39303 6.37506 8.57311
8.59223 4.52398 3.21613
6.85248 6.15448 8.42139
6.57937 2.94323 3.76178
2.44519 2.21261 4.20034
10.1684 12.5822 13.872
5.41106 7.25689 7.11642
6.88606 3.79535 5.17181
4.70955 5.81652 5.80982
3.25693 1.6483 1.83545
4.28633 5.61618 6.14371
2.16583 4.4822 7.77022
8.27484 4.5216 3.58751
1.57185 1.31394 2.97614
5.01078 1.18784 1.91699
6.64415 1.5694 0.67634
5.32978 2.75253 3.31497
11.1343 8.34572 9.71157
3.59411 3.06685 4.80813
6.68078 6.40265 7.27085
4.3685 1.05506 1.47394
2.68012 3.28219 3.43246
6.45045 5.04321 5.36118
4.56388 1.76886 3.49262
6.63973 5.53938 5.87996
7.232 3.38628 3.65941
2.84677 2.16558 2.46505
5.87689 4.2663 5.49938
3.00916 1.58426 2.81956
4.10132 2.03754 1.91024
4.17631 0.824115 0.9228
5.2518 2.5635 3.579
6.06699 5.01784 5.10916
4.3568 4.67915 7.42305
5.55288 1.45233 1.59509
4.8943 3.40524 5.25306
5.48829 4.16021 3.63076
3.93407 3.47772 3.83053
3.04666 1.22869 2.90945
4.26511 5.32495 6.76659
6.47943 4.49725 4.16511
3.23792 1.41449 3.05
4.88196 5.50364 7.79711
4.30398 3.27874 3.48096
3.25669 2.54536 5.3276
5.50153 3.65466 5.93117
8.14064 6.58895 6.30105
3.99942 2.65287 2.90787
2.66321 2.29933 3.71285
7.86466 7.70431 9.35016
5.47733 2.96482 2.74309
3.13605 2.90863 3.79213
2.88175 3.95572 6.98133
8.39169 6.51516 7.52447
4.628 5.33104 6.08807
5.31195 5.94146 6.8857
2.77123 1.75896 3.27162
3.55897 4.90028 7.76456
3.21946 2.20363 3.58431
7.26949 4.99594 7.06974
4.10029 1.42174 2.26603
3.37971 3.1444 3.91032
7.93095 5.65858 6.61674
5.61273 5.75192 10.1134
3.75869 3.62863 6.19458
4.2454 3.10173 3.0419
2.42103 1.48647 3.56525
4.22036 2.7319 2.70259
4.75661 3.19589 4.41909
1.25303 0.83273 1.1733
4.38473 3.22531 2.69158
2.90654 2.69092 4.82563
11.2624 7.53367 9.14022
2.28884 4.43887 5.67308
2.04668 1.43963 2.89131
10.8862 9.19923 11.8333
5.23547 4.6891 9.24287
4.37903 4.58147 6.52011
3.76584 3.98886 7.1747
6.80581 5.02263 5.6132
1.18513 2.73753 4.62176
2.77622 2.80222 4.44645
4.31919 2.95813 4.58395
1.0459 2.8612 3.55464
2.29023 2.04235 3.87832
5.07396 5.70051 6.26842
3.00997 2.00379 3.96419
1.36109 5.86551 8.73858
4.77012 1.91534 2.76568
3.50955 2.05515 2.11034
2.50685 0.999081 1.47809
4.47999 4.83246 10.1835
3.16214 1.57925 1.37831
2.31081 4.29584 6.97341
2.26406 5.29349 8.83665
3.75155 0.891503 2.6468
5.30451 3.52866 5.26264
4.02592 5.94356 9.58395
5.23239 4.59669 4.81811
4.53138 4.54705 8.36669
3.29881 2.70381 4.73262
4.6049 3.78025 4.94183
5.60513 6.79283 9.94815
6.35306 3.37499 3.2914
2.7184 2.23733 4.43532
4.93976 3.95877 6.39192
4.38286 2.38032 1.89225
2.94822 1.56753 3.19699
3.8856 4.98517 9.0215
4.57727 4.62745 6.57691
4.47664 2.59901 4.69157
2.94918 5.17185 8.1453
1.98286 1.43972 3.96511
3.57303 2.97057 3.70433
3.53477 3.44415 5.54865
4.73788 4.49326 8.94849
4.63463 5.08523 5.9808
2.73445 3.13765 5.48175
4.06741 3.19747 5.37156
6.26694 7.77975 11.3353
4.32286 5.04455 9.7096
5.63979 8.88532 16.3274
3.73472 3.20091 3.1514
2.52927 3.38835 6.77758
4.23849 6.03871 9.17693
2.51823 4.87618 8.29712
4.67586 3.70094 9.61222
5.38876 5.66088 4.07867
1.37571 3.20622 6.02559
4.79145 4.10385 6.37153
3.11945 1.71097 4.62288
3.64225 6.34986 10.3335
3.55496 3.2579 2.10411
1.80059 5.73635 10.7834
5.34771 3.54013 8.15348
2.80305 4.41697 5.61248
1.533 2.18501 4.99
5.46177 4.805 11.0887
3.16022 4.45822 6.1881
7.6473 8.11409 12.4241
4.60951 4.30225 5.28191
1.83015 4.26351 9.39782
4.687 2.5869 4.40058
3.69482 6.41602 10.0134
2.44919 2.936 6.73703
4.80488 3.57755 4.91401
3.52663 2.14012 2.99058
2.64085 2.71392 5.80927
4.50949 6.40064 13.2503
4.23125 3.39687 7.03953
8.40033 10.1034 15.226
3.5653 2.79249 5.35413
3.74284 1.3383 1.52341
6.37181 5.99515 8.76302
1.29655 1.83244 3.61615
3.75686 3.61558 7.09584
3.35973 7.47587 14.339
3.39743 5.2082 6.8617
3.31774 5.56861 10.8592
3.46937 3.83766 4.92321
1.87566 0.358782 0.674704
2.35238 5.88577 15.0357
6.34537 6.25753 8.45702
3.76465 5.23513 9.20384
4.54595 2.59817 3.6212
2.30833 5.23484 10.4049
3.67809 5.1913 13.5116
5.05682 4.82577 5.41433
1.9857 2.83005 5.84992
6.68098 5.12343 7.33339
3.95318 7.72058 13.1711
2.13021 3.66974 11.7863
3.92411 2.44928 3.84505
3.59733 1.12772 2.58544
3.44445 4.99457 8.47508
2.76543 1.86527 6.40994
6.85312 6.71916 10.722
3.29228 4.68484 9.59158
0.535636 2.21119 4.77603
5.25216 4.78659 9.45063
2.14652 3.77126 8.52343
1.8073 3.78705 7.36526
2.5959 2.05666 3.29893
1.17278 0.860114 3.64681
0.785716 2.03703 5.35089
1.69522 4.74503 7.75749
4.01551 6.24984 11.4816
3.82964 2.67217 4.54289
3.54243 4.4366 11.3727
2.7391 5.6927 9.70086
4.43631 6.886 13.0947
8.27111 9.32931 13.4065
5.23139 3.95577 7.23965
5.00353 4.68707 9.38656
2.64725 2.05104 4.27341
3.66573 3.50303 7.3107
1.63415 1.87769 6.0958
4.39836 7.67082 17.1397
1.69504 5.09395 12.605
6.10653 8.82907 10.0306
3.22154 8.56579 19.478
4.01692 3.51699 2.95745
1.91387 2.55092 7.12784
2.49477 4.45848 7.94359
1.19979 6.08304 15.9877
8.01362 7.97472 15.8537
3.37829 3.31675 6.11017
1.76782 3.86125 8.79052
2.53097 1.99012 3.41185
2.61163 2.51421 9.4368
6.12467 5.04092 6.49293
5.4554 6.2049 11.9054
2.19776 1.54314 5.2671
3.74419 3.10797 4.5435
4.09816 5.58086 9.0376
2.4155 3.83465 11.7042
2.5561 2.16813 6.36482
4.41365 6.48434 10.3859
2.60615 4.69705 5.64565
2.5637 3.48256 12.0636
2.81055 8.20426 15.6192
3.62795 1.58195 5.89822
6.51432 7.05739 12.6915
3.26296 4.66967 6.31889
2.69914 10.1608 26.8725
4.76103 4.704 4.82621
2.05479 3.18381 13.6674
5.75865 3.3774 3.45542
3.27463 3.55197 7.95529
4.13604 6.19478 12.745
4.01431 7.05479 12.5114
2.7988 8.96115 23.6285
4.95626 5.3429 13.8296
1.6301 5.39218 11.0102
2.72037 1.95928 2.16817
3.08513 3.02489 7.72647
1.07953 4.27708 10.2146
3.55994 4.02486 5.61405
4.84619 10.7328 14.7787
2.36732 8.59031 24.5992
4.38049 3.53947 10.805
1.75898 4.93148 5.26715
1.28816 5.92755 10.8398
2.15391 2.846 9.23496
4.02784 4.63605 8.77264
2.98804 4.62794 9.93052
2.58763 2.14548 4.94802
1.51428 3.96991 10.4854
2.33211 4.42311 18.5921
6.78789 4.36349 6.9801
4.63912 2.33198 3.47272
3.80959 3.66603 5.83107
3.35234 2.52066 4.58295
3.2096 4.53829 10.9756
1.64739 2.4139 2.89634
1.23148 3.49589 6.90709
1.52182 4.49748 13.7855
4.87483 5.65815 13.4097
1.91048 1.12723 3.4629
4.11592 4.78797 7.40991
1.27646 4.59967 10.9651
3.64116 2.40849 5.3206
2.18497 1.78932 3.66835
3.51568 5.38679 10.1581
2.40661 2.36826 5.89646
4.33672 6.80938 18.809
4.5513 3.73425 8.30105
3.9518 6.04896 12.7862
2.65348 6.36598 13.9443
7.82211 12.2468 28.9072
3.66925 4.4269 9.14393
3.34537 3.5167 8.91564
3.38148 3.632 5.82839
2.77087 1.95263 4.62028
5.94089 13.9928 31.8173
2.6449 2.81987 7.80227
2.99132 3.53275 6.62514
1.36303 5.95375 18.516
6.23743 3.21536 2.116
2.45728 2.83626 5.37037
3.78796 4.72665 11.9516
1.5251 3.46212 16.4316
3.50119 3.70702 4.47135
2.17591 3.09619 6.52792
0.971366 4.51966 15.3029
6.11019 6.89807 9.6145
2.77954 3.9293 10.6414
3.0047 2.1838 6.54163
5.48247 9.05168 14.4619
2.88761 10.9287 28.0269
4.58373 2.58521 4.19349
2.28364 4.02899 9.26583
2.57452 6.70492 20.7254
2.91612 3.45694 4.51055
2.63123 3.33769 11.5175
2.25538 3.45619 4.99534
0.90267 3.78733 8.79527
1.59754 1.32238 6.30112
4.47309 9.93558 21.3297
3.99732 4.76181 16.5407
2.92542 4.62639 14.5846
3.20092 2.4249 4.23593
5.33015 12.0069 23.7556
3.79204 5.31518 20.2502
5.45586 7.58267 13.2697
4.27542 3.65699 4.97764
1.3017 1.34561 4.60845
1.19702 4.10936 10.815
3.23763 1.06158 6.55051
6.73391 9.66793 29.1796
7.08018 15.3628 30.2774
3.43578 6.53449 15.3406
3.4369 7.18094 10.4182
2.20781 4.00265 7.82659
0.926809 3.18534 9.88604
2.68898 2.29712 5.16977
2.55695 4.43796 16.869
3.04749 5.0681 11.5435
1.68443 4.52096 8.02582
2.22479 2.3397 8.53842
2.56769 6.12196 11.46
2.07995 3.11457 7.40834
2.87669 8.44436 22.1759
2.98431 2.70993 15.1828
4.68951 3.4128 5.42193
2.7871 4.65388 7.5203
1.29298 3.67441 12.9517
5.43045 8.82279 18.5121
4.10133 6.66381 11.4736
1.39925 2.55764 10.1472
1.6564 5.4878 21.9533
3.38549 9.03099 10.7607
1.62151 4.03226 11.0153
1.4458 3.02271 16.82
6.16588 8.64935 14.6599
3.45957 3.11179 8.20455
5.09297 10.1459 19.8694
3.62777 8.98911 15.6598
3.10587 10.9928 34.239
2.80006 4.15242 17.7003
3.3343 2.06131 6.69294
2.45192 3.49682 6.8817
1.88477 4.62068 14.5206
3.7114 4.80827 11.9074
5.42486 8.48052 18.5299
4.21062 5.71997 13.2252
3.59933 5.87203 14.0005
1.76549 3.79928 4.9412
1.19155 3.26631 8.13051
2.5753 3.79782 12.741
2.40834 5.72001 19.5724
2.74746 7.04709 19.044
3.0067 4.68403 14.4702
2.38144 2.94657 8.40073
1.58816 2.5491 10.8753
4.23252 5.71975 13.9258
5.86269 4.90633 3.51426
2.77086 6.45411 24.9477
3.99521 8.46755 18.488
2.85119 4.74204 21.2953
2.52961 8.9203 25.1305
2.25575 8.86461 32.4907
4.95548 13.4003 36.4872
8.53249 10.93 23.8276
2.34649 7.7427 22.0888
4.37116 7.13566 14.3143
5.60034 6.25428 10.3875
0.894106 2.63679 17.1962
3.80655 8.53865 14.0551
2.42448 3.84983 11.7496
2.09974 4.76723 10.1945
2.60604 3.06986 3.59688
2.71548 3.13291 6.57812
3.47256 6.33945 9.57222
1.40502 6.02978 17.8476
1.60238 4.19597 15.8297
1.83659 3.14046 9.73109
1.4747 6.66671 25.884
3.92694 7.51949 14.9373
1.54237 2.99478 7.76796
0.816158 2.80133 8.12857
3.03777 8.54879 20.7189
1.46479 1.3674 10.8558
1.58134 2.89068 7.73607
1.46444 1.57972 6.95263
1.55135 1.90111 5.22983
3.7615 10.8532 31.3531
1.58917 4.32119 13.1159
2.94428 6.20115 10.4779
2.39814 3.6589 13.5823
1.8491 2.70835 3.18264
1.45752 5.10322 18.1023
1.91758 0.995973 3.91822
1.83218 3.05618 7.63119
1.14002 4.21917 15.3005
1.45443 4.27116 9.69286
2.87213 7.53081 11.5732
1.91843 4.75134 15.2582
1.77969 3.38376 9.09196
2.57 2.70495 12.8121
2.82174 5.09112 16.5954
2.64009 3.13621 4.98268
1.62863 6.029 24.9019
4.14852 7.60337 11.2626
1.23711 3.23911 10.6786
0.441619 1.03137 1.68522
1.50646 6.79207 16.48
1.65973 5.77029 16.1692
2.49117 3.57834 11.2645
0.968693 6.18403 21.1188
3.86181 7.15832 21.3906
3.35443 2.04106 8.48053
2.97219 5.5758 7.45763
1.85579 5.97984 19.1799
2.76156 3.43768 10.6316
2.14556 2.25047 8.67058
1.08737 2.29118 2.61373
1.66604 2.89325 7.38607
2.57212 4.65699 14.2786
1.66147 5.2352 24.7577
3.58108 9.61699 24.5224
3.6316 2.80635 7.30753
2.3486 5.54797 18.4227
4.07114 6.30303 15.3814
2.12997 4.55128 10.0397
1.94904 5.38238 16.8606
1.8558 2.89891 7.94108
1.81752 6.58999 16.9779
3.5419 7.55312 22.4397
2.81595 5.09698 20.0355
4.57238 9.15827 30.3492
3.45443 8.75877 17.7352
1.80164 2.22676 10.178
2.09131 2.76049 11.3878
1.17034 2.74636 4.80924
1.4574 3.32652 14.7715
2.51673 4.26434 12.1201
1.51012 2.91558 19.9704
5.45704 10.8759 16.4672
2.09274 3.4654 21.0004
4.82141 4.30312 13.5416
4.335 4.95276 6.236
2.45072 7.07581 11.8904
1.68002 5.29021 17.491
1.68601 1.53054 12.4594
1.96736 5.68148 15.9161
1.1121 2.5527 19.7273
3.41987 5.16469 13.9347
4.57841 6.07315 7.07724
2.38872 3.84887 13.1635
1.2685 1.98384 8.94213
2.4767 10.3386 34.2403
3.38115 6.86907 19.836
3.05766 9.71634 32.243
3.34598 5.74569 8.1256
0.542806 1.90336 8.1848
2.56883 6.06153 16.2247
3.51344 4.78887 9.00261
3.22274 8.84678 27.3842
0.928355 2.28452 12.9455
3.14337 6.42589 23.6221
2.60139 5.42431 32.4019
2.98976 10.6195 12.9601
1.12525 6.44222 20.7147
2.97863 6.03692 28.7676
4.11492 10.1013 22.7509
1.70869 7.18303 14.8514
0.951911 1.85614 12.0355
3.1774 7.60791 15.2668
2.15364 6.27968 20.2578
2.65496 1.63765 6.39876
2.36354 8.77453 31.3476
3.17679 11.7701 37.3147
3.1869 2.43442 8.98603
2.26112 1.72478 5.95075
2.11954 4.35931 7.47126
1.79118 8.03058 28.1081
2.82071 3.44283 20.343
5.77534 8.63826 14.7554
1.33434 4.22831 17.1988
2.03874 2.76171 4.25544
0.522314 2.57 14.9466
2.78554 5.01689 11.2298
0.959652 3.7459 11.1287
1.16934 0.396819 4.46939
1.45424 7.95544 16.9209
1.43388 2.26613 10.0193
1.01754 3.18961 19.329
2.10642 3.93695 11.6595
2.88136 6.25965 25.9667
1.97757 5.67551 13.7028
2.22263 3.12932 16.5706
4.90779 10.3495 22.3184
3.01391 6.97198 12.6846
0.823342 2.14593 21.2423
2.33069 13.2306 25.9756
1.4942 12.6292 44.4157
4.4581 3.567 9.36951
2.20175 3.04722 10.7035
1.19959 3.44677 21.182
3.36085 5.5611 20.611
4.33554 7.47779 20.3786
2.23545 4.86767 14.5216
2.21129 10.385 38.8302
2.83911 3.84129 12.4222
2.15735 1.94639 6.96564
1.12775 4.40939 13.652
1.66509 5.11945 17.8807
3.34068 11.9971 25.8092
1.53903 4.7573 27.7476
3.57927 4.69505 23.0374
2.65861 6.96092 14.6381
2.25641 9.89996 27.611
2.51381 11.0084 56.667
5.70263 5.11595 33.7647
7.41288 14.2584 11.2745
2.58613 11.2573 42.0163
4.0657 15.8633 34.666
1.30456 4.4864 30.9623
2.47679 6.33314 17.775
1.89867 6.99863 16.6864
1.88051 4.79337 14.4833
1.79499 3.24798 12.9475
1.41871 9.08295 16.6257
1.81757 2.71233 16.6016
2.65632 4.40497 14.5447
1.95976 2.48457 11.7561
1.82966 6.11663 18.36
2.65025 4.9586 26.3908
5.42874 7.45461 26.9875
3.54528 3.95955 8.89479
1.43884 4.58954 25.6382
2.45298 6.05257 11.4226
1.60958 3.02355 20.4933
1.84188 8.0876 11.3341
1.17869 1.26687 3.97766
0.617292 2.27141 5.39979
1.03665 4.08182 17.1137
3.29597 7.06628 20.4988
1.55856 1.95567 10.2058
1.52025 4.29718 19.5601
4.59842 4.68821 7.15659
1.29509 6.45084 31.0684
2.90606 12.5565 37.6941
3.74493 6.30479 15.0636
2.11244 4.1096 22.5351
3.0346 8.51794 34.4968
4.96116 6.8298 17.3595
1.84235 8.78061 38.456
5.17443 7.76942 15.692
1.4258 3.83195 7.75622
1.29087 4.89277 25.8777
4.21186 2.22034 5.11304
2.46487 4.50491 15.4686
2.97276 7.0691 21.0747
2.72878 6.65348 26.1369
2.25785 6.08438 24.6634
4.2311 4.88081 19.9315
5.20451 14.4213 34.0086
1.82145 4.70201 15.7524
2.05947 2.77666 6.59871
2.3495 6.1961 28.7435
3.11061 8.36959 34.1414
2.0747 8.59559 18.702
2.84398 5.69625 15.0699
1.7666 3.01128 6.62702
2.17273 7.50772 25.7561
1.51398 8.89581 27.8088
2.27704 6.99229 22.0246
2.55517 3.03513 18.9978
2.75404 9.20091 17.1469
0.913967 2.59886 8.48306
1.94361 2.7194 12.1984
1.89704 5.20292 24.6288
2.07882 4.15546 13.7823
1.90212 2.52562 17.2062
3.6339 10.3531 26.7323
2.52177 2.23398 9.86745
1.41482 5.48123 16.9821
2.69927 6.22831 15.8814
1.46483 3.5666 26.0003
3.32069 8.83932 20.13
2.00818 5.58508 19.7392
1.61677 6.12907 30.6437
2.11674 5.23459 14.8262
2.02223 3.98285 31.4011
2.59905 7.75504 11.4664
1.10169 2.46717 12.2868
1.52712 1.19258 16.513
1.9649 2.38703 14.3201
3.05199 11.1632 28.4103
3.36115 7.22786 29.8279
2.15463 3.03597 1.81256
1.58515 4.97623 19.5919
2.06631 5.53541 12.2755
1.55599 5.6237 22.1931
1.33804 6.48773 28.6301
3.87413 4.16932 15.0033
1.76848 3.87564 11.1395
1.79657 3.05311 10.9828
2.44988 6.14988 19.9748
1.32764 2.1683 19.1147
2.0885 5.02441 12.7875
0.894532 5.75656 19.2093
2.55309 10.926 38.7495
2.18509 5.75404 32.7583
4.00748 7.18823 28.9905
3.32587 8.41498 17.0692
3.43869 9.94221 37.2886
2.40731 13.2272 52.7551
4.5631 15.1872 26.3485
1.51984 2.64717 20.6684
3.6373 5.73579 23.4893
3.5713 10.3096 37.0935
1.7983 3.42971 9.00793
0.918024 2.32267 14.6043
1.42102 3.04775 7.98854
0.618835 5.13696 39.8016
5.20659 14.2271 30.8267
1.31777 5.91708 13.226
1.17728 1.74717 20.4953
1.9668 8.82277 30.7594
3.08283 9.06894 15.3637
1.46703 2.60153 19.8215
2.40401 13.3256 34.0284
1.90307 9.52818 26.0284
2.9886 3.54001 28.1884
2.72533 9.56818 12.1559
1.26212 4.64432 20.1269
1.99577 4.23159 21.3168
2.61032 2.27668 17.4156
2.25125 8.45196 15.0836
1.45671 3.96313 19.6715
2.40896 4.32813 7.67856
1.32315 3.61082 13.2594
1.91465 2.9545 28.8817
4.33659 11.2701 38.1368
3.23961 10.3381 23.6816
2.76045 4.78614 26.776
1.65197 1.59853 16.049
3.21517 6.04847 19.6316
1.92691 3.90267 29.0302
2.73554 5.22823 15.0672
2.56726 2.54257 6.93997
2.00296 1.94977 29.6094
5.89376 16.6677 25.3164
1.04473 3.75263 55.0617
5.73449 15.6798 11.5796
1.45015 9.41087 44.7443
3.88432 7.35741 29.1952
3.07236 2.11374 7.16438
1.8786 3.65574 31.7999
2.29594 7.27788 15.2874
2.32056 4.92051 9.4542
1.71335 3.09664 11.1134
1.52137 2.18932 5.13575
0.664212 1.10863 17.9859
3.28642 9.01879 29.198
1.6695 8.76393 39.4219
4.82709 7.31904 25.3499
1.60627 7.90638 21.2381
2.15653 5.19468 22.4126
2.27036 6.09246 16.9833
1.33629 2.80187 6.63496
1.03886 9.13309 48.9393
3.64503 9.14927 13.9067
1.22538 5.50505 20.8302
2.68613 4.31717 27.1873
3.93559 8.7948 37.0804
2.25176 4.32382 21.5981
2.86329 7.90848 13.2839
2.11273 5.75903 26.2596
2.44692 5.43723 12.9512
2.18743 4.6944 38.5748
4.23722 9.20421 18.5455
2.68275 6.4134 24.7817
2.47636 4.58796 16.24
1.32634 2.66367 8.77839
1.50711 2.90208 10.6111
2.08342 4.81706 22.6441
3.53365 9.77086 37.9255
3.51617 8.99445 15.8835
1.87932 3.5626 16.2789
1.67719 5.17199 4.66852
0.664331 3.97848 22.5624
1.55749 3.67869 13.355
1.46852 2.76062 6.40242
1.11501 3.06267 8.86778
0.837679 4.50367 25.1251
3.2532 9.07245 54.2072
3.45708 9.37207 8.59502
1.30951 15.4403 60.3406
2.93011 4.93448 32.3514
3.67492 7.75842 25.6225
2.64451 5.58449 24.019
2.6879 10.3857 30.7582
2.39969 5.56184 35.6578
2.09518 4.02273 9.33341
1.69793 7.77091 27.8559
2.88897 6.22572 31.4861
2.54773 3.34806 7.32088
1.07757 4.27009 21.7477
2.08141 3.02624 25.5966
2.76211 13.2641 23.7714
1.69889 2.70336 33.058
5.4307 11.5521 28.5886
0.815195 2.38377 19.1986
2.22822 12.7043 31.9167
2.73482 6.26887 20.1021
2.00099 2.51968 13.1366
1.33616 2.83093 11.29
1.35022 2.12791 3.49893
0.784368 4.94754 26.8443
3.61043 6.40283 17.2273
1.17423 4.71495 15.0367
0.785091 7.95992 55.0904
4.50153 11.1651 15.241
2.17538 5.05604 20.9876
1.08098 2.7323 9.85079
0.80081 7.79666 22.6737
1.37693 5.87525 52.2567
3.98961 10.0261 17.2061
1.50898 1.4505 20.3932
2.17188 4.63759 17.0053
1.739 12.721 41.103
4.13407 5.31791 39.6727
3.20939 7.11085 22.7115
2.17546 10.5058 24.8987
2.02709 8.10048 28.1093
1.97294 9.07095 39.4029
3.79057 2.63314 12.1121
2.08944 3.01146 21.3
2.08013 8.43415 29.5052
3.71157 14.5164 33.5836
3.17841 6.27261 44.6234
4.31312 4.20658 6.19828
1.82786 10.4291 35.0582
3.21078 5.97666 23.9077
2.97115 7.78103 27.885
1.81117 8.29552 56.2809
7.73437 17.4876 31.458
1.67989 5.26605 33.96
1.68141 6.22709 22.2376
3.42124 10.0555 19.8176
1.12109 5.38896 28.0369
1.71712 3.0955 9.42127
0.913998 4.83852 29.519
2.96839 6.00822 23.1794
0.710989 3.49491 14.5926
2.01459 6.22853 32.0519
1.57008 5.35549 16.7532
1.72286 3.82683 17.9203
2.078 5.8907 13.7983
1.82368 4.55101 43.0826
1.70016 7.5955 16.6675
2.03564 2.9172 17.644
1.7665 8.96552 24.7515
3.14196 4.30356 22.2429
3.13329 7.43562 42.3519
2.78198 10.0104 40.0619
1.92377 4.73453 12.7095
2.18304 4.30736 14.615
2.39046 6.71836 15.7609
1.67814 3.51347 30.9704
3.6357 10.8027 16.3868
1.56517 6.03427 20.2555
1.23406 2.90111 27.2624
2.61215 11.2669 41.009
2.06475 8.12786 30.9672
1.36592 12.1077 28.8554
2.79245 10.832 49.3721
4.21771 0.821335 15.5547
1.97047 5.6228 11.9277
1.47366 4.25237 12.3204
1.6245 3.77798 24.9349
1.57761 6.23125 28.3263
2.98998 4.3915 6.1655
0.303514 5.40678 14.7856
2.10629 1.60605 14.989
1.8749 3.15216 4.10511
1.13837 5.19462 34.6846
2.15931 6.88251 15.091
1.75532 6.44693 19.8913
1.56376 2.90593 16.2971
0.731991 7.9094 42.7004
2.78065 5.32956 26.6998
2.10208 8.41495 23.5632
2.22174 5.06498 12.7957
2.13718 5.85982 27.4331
2.40565 4.01685 10.3455
1.1231 2.04571 21.0539
1.90161 9.93758 26.8423
2.50529 4.04668 15.4899
2.06489 3.56 23.4428
3.46008 10.4934 27.2475
1.69493 4.74186 47.8206
4.03833 10.6746 34.3654
3.08618 11.2794 50.2044
3.31294 13.2027 16.4116
0.758933 8.74788 29.69
1.93605 5.83948 54.0725
3.72713 8.17857 26.7937
2.42048 5.05715 18.5999
2.26401 7.13754 23.9822
1.97996 7.90477 24.5293
2.93555 7.75174 73.0664
7.09821 18.8536 50.1759
3.67957 11.2112 31.4708
1.51674 6.05643 16.143
0.357207 5.1937 16.2178
1.06743 3.99426 17.8199
1.96427 3.44772 14.5291
1.31271 10.086 40.3366
3.1803 3.24113 18.4989
1.31388 5.49694 7.69795
0.775451 8.26563 23.3704
1.77318 2.70023 17.7324
2.23262 0.938292 11.1844
2.05387 5.50172 13.9727
0.492568 2.85128 22.4396
1.25342 7.23699 26.3242
2.85917 4.90766 23.5258
2.39838 4.94757 17.8862
0.82503 7.8443 33.6355
2.2204 4.50006 19.9422
2.37892 1.16821 9.01301
1.47902 6.4652 21.2694
0.897031 4.72557 33.2317
2.45255 7.58119 38.8058
3.10733 6.65832 31.099
1.90571 9.68664 41.4573
3.65083 18.3015 71.1041
4.26759 6.30602 36.6906
3.20007 11.0932 23.2461
2.38572 11.0399 26.0798
1.39992 3.60493 40.7808
1.95567 8.62283 9.75075
1.92501 6.71618 36.1813
2.28399 8.66831 28.9796
3.25158 6.56728 56.2335
4.50162 7.9648 25.4909
1.95408 6.98954 21.2815
1.41639 7.14216 43.087
4.35473 13.1165 39.5937
3.52088 8.09457 18.3338
1.09776 4.44322 15.65
0.846076 8.42596 47.3572
3.08154 7.96835 33.688
2.98944 4.05845 33.2677
4.20153 12.9017 37.8691
1.23646 6.86124 6.81387
0.869466 1.90093 25.1183
1.83461 4.56242 12.498
0.945221 8.23618 15.6622
0.850434 3.56126 18.995
2.79205 1.97164 7.96078
1.6835 6.09943 25.7884
2.23134 6.26941 15.6574
0.729044 3.5193 27.6646
1.20011 12.1514 43.4968
3.61342 5.23975 24.7415
2.41699 8.98267 47.9806
4.00159 5.3894 22.6162
2.1289 8.2157 31.7065
3.87148 7.65257 44.735
3.32288 13.5806 20.8348
0.696755 2.52558 13.3658
1.83084 3.62058 8.09757
0.465224 2.07869 11.8698
1.12822 8.3961 29.1123
3.1843 6.52965 9.55922
1.44999 4.02 22.2984
2.5633 3.95432 29.7934
2.7464 2.62714 16.6802
2.5 7.59902 14.0378
1.56137 2.22279 28.4062
2.20935 10.2362 33.7657
2.4912 6.95662 9.29137
1.06076 5.47312 24.5048
1.2599 4.10902 9.39205
1.05119 5.66836 30.5682
3.19332 3.88529 5.07207
0.291835 2.54338 18.0419
1.98261 2.94747 19.898
1.73947 9.9214 21.2011
1.92083 1.07141 11.6969
1.84958 5.66968 26.2611
2.45512 6.59459 51.828
5.14621 15.4864 48.5185
1.4778 6.25264 1.9318
1.0194 4.42406 7.24823
0.527447 6.03142 32.6369
1.66251 5.15322 31.8654
2.47825 5.20805 18.1617
2.21559 2.9538 8.52127
1.73088 5.65043 28.6147
2.07232 4.52105 30.9591
2.93004 3.05236 17.9523
2.11683 9.42631 15.3461
1.66701 3.12284 30.4678
1.53495 12.394 61.8366
4.93121 10.5583 17.5313
2.01032 5.26122 28.0892
1.50237 5.8121 26.3342
2.64792 8.40513 19.85
2.25304 5.33239 7.83379
1.38195 5.98566 56.6911
3.50068 9.45884 9.56291
0.570749 6.19367 33.5904
2.83157 4.86038 8.98876
1.41215 3.78799 14.1055
1.42006 1.24529 21.7081
2.31261 8.41035 36.5636
1.86745 7.30475 43.569
4.35656 13.1224 28.4453
0.87769 4.88135 36.1032
3.09878 7.72889 11.1991
1.45622 4.27219 14.4614
2.42522 7.69491 28.4944
2.16584 4.56684 36.1108
2.54475 9.12582 38.803
1.35672 9.38109 11.883
1.10294 3.407 20.5318
1.42126 6.55955 42.3697
3.18117 10.7605 53.5739
3.6578 0 0