# pn-170911/RbIIA-23-USNO-1280-1959.psd
# Power spectrum* (dif=0,1,2) (really just |FT|^2)
# NOTE: only the first half! (symmetric)
# weeks: 1280-1959
# 3 clock-days, 3 excluded
# PSD: 1441
2040.15 0.0111601 0.00327071
105542 0.747939 0.000733142
685818 17.6391 0.000770309
13403.9 1.62814 0.000668735
95256.2 5.88435 0.00045671
21224.8 1.64882 0.00158497
8482.53 0.332308 0.0006686
4218.5 1.54193 0.000661664
6723.17 1.09666 0.00142417
6934.92 1.51336 0.000176891
1317.81 0.544831 0.000674546
8543.81 2.74818 0.00325389
2762.31 0.525117 0.00134428
3667.04 1.62473 0.00217286
2821.49 1.63394 0.001769
1972.5 0.57548 0.00170578
915.061 0.812704 0.00269115
1786.64 1.01799 0.000477849
2643.02 1.91123 0.00408382
809.359 1.11465 0.00307531
525.399 0.757704 0.00226342
858.835 1.39429 0.00141133
619.205 0.578526 0.00235619
660.908 1.60739 0.00583341
706.038 2.04956 0.00413238
1070.49 1.86879 0.00867448
1404.76 2.31968 0.00820592
727.863 2.62616 0.00872295
763.046 2.49868 0.0107412
504.052 1.67039 0.00583252
1081.86 2.94191 0.0181762
442.283 0.752655 0.0036155
302.364 1.18949 0.00759827
422.57 1.17882 0.00647545
180.167 0.478663 0.00448727
200.888 1.30101 0.0111096
370.514 0.848085 0.00614857
451.983 2.07695 0.0169289
291.255 1.88876 0.0140962
545.499 2.53949 0.0213517
280.588 1.60732 0.0138719
132.477 0.842248 0.00372772
305.586 0.93552 0.00661776
347.738 1.72915 0.0140289
36.0649 1.50718 0.0164707
169.346 1.5909 0.019636
224.284 2.01199 0.0226889
328.32 1.78918 0.023761
130.858 1.28059 0.0160142
101.234 0.987092 0.0173014
120.646 1.0464 0.0100234
256.332 2.79629 0.0347484
298.015 1.22381 0.015647
22.9849 0.550889 0.00749294
250.812 0.97237 0.0134082
288.551 2.76182 0.0450684
84.5224 0.74468 0.0116401
132.658 1.58095 0.0188241
134.616 1.35947 0.0202131
119.062 2.27786 0.037072
96.9605 1.29897 0.0252712
114.096 0.752551 0.0161718
64.2879 0.208829 0.00773209
66.0047 1.53398 0.0276234
107.786 1.57576 0.0327036
126.66 1.12031 0.0222754
74.7986 0.874908 0.0200646
47.0914 0.197416 0.00672236
50.9812 0.127745 0.00380314
125.48 1.10477 0.0232598
26.3327 0.525874 0.0142705
74.0795 2.12819 0.0552733
151.771 2.4355 0.0668708
62.9304 1.33424 0.0373969
110.747 1.73855 0.0404313
30.9779 0.608978 0.0136256
97.5994 1.62007 0.0437359
53.7341 0.710325 0.0184042
15.4862 1.36325 0.0422234
27.8739 0.969478 0.0311812
101.412 1.03953 0.0320632
39.0337 1.11751 0.033566
28.2626 0.765504 0.032102
50.5459 1.54298 0.0618681
18.3055 0.692256 0.0219164
19.6813 1.6421 0.0544877
59.054 1.97304 0.074704
129.388 3.32343 0.126439
90.0135 0.888346 0.0284412
99.2088 1.56981 0.0529814
60.385 0.940895 0.0393088
58.1317 1.83801 0.081073
46.352 1.98776 0.0783736
68.8824 2.14521 0.0876478
113.181 1.77845 0.0681609
64.5636 1.36147 0.0578141
43.1135 1.04464 0.0428898
38.4898 0.351722 0.0205282
108.306 2.657 0.123798
12.1666 1.09286 0.0532164
21.6504 0.798256 0.0476135
56.9791 0.705252 0.0379679
20.2525 0.508782 0.0242332
84.5134 1.88243 0.0904721
15.9273 1.48636 0.0798902
43.9383 0.762292 0.0437246
30.6355 1.12191 0.0679539
58.5796 1.69126 0.0759779
39.8911 1.62118 0.101336
52.0068 1.93683 0.0950791
59.8681 1.96298 0.125591
27.5556 1.59586 0.0960458
18.2924 0.259661 0.0161968
29.601 1.60686 0.0896258
14.4892 0.63508 0.0348339
32.2565 1.51792 0.0984598
92.9231 3.93888 0.277989
37.4582 0.849436 0.0393804
35.4585 3.49174 0.220058
40.485 0.939318 0.0618603
47.4 1.67345 0.121699
31.5166 1.77517 0.133783
27.4896 0.676134 0.0516213
25.1579 0.429759 0.0287741
14.2843 1.20697 0.0839977
25.2454 1.32044 0.097411
23.6078 0.361803 0.0341755
29.2255 1.61744 0.125222
36.3202 2.51842 0.214426
32.4125 1.133 0.0897613
67.5218 2.02304 0.133964
22.673 0.745777 0.057943
23.4944 0.503161 0.0424419
33.4028 2.28232 0.199316
36.1772 2.90593 0.229462
4.72601 0.691492 0.0606655
35.13 2.27843 0.188574
7.31632 0.803729 0.0815273
40.1825 1.14523 0.113661
17.1137 1.76913 0.175825
20.933 2.2734 0.204093
42.431 1.60641 0.146902
34.8692 2.88529 0.254207
29.8524 1.40986 0.152674
33.4878 2.76742 0.249187
14.6056 1.03288 0.104958
8.70735 0.180813 0.0246967
22.9953 1.6986 0.175305
17.9375 0.520896 0.0500868
15.6295 0.432713 0.0414998
38.8589 2.73138 0.312341
24.6568 1.00617 0.103416
37.1788 1.69947 0.186604
14.5673 1.15115 0.155237
32.2605 1.56749 0.143192
26.955 1.98977 0.238987
8.14765 1.78043 0.213201
70.8254 3.46294 0.381042
31.5151 2.15931 0.263567
7.786 0.746886 0.103709
24.3376 2.3875 0.294124
9.69538 1.00119 0.117808
13.0462 0.26625 0.0480313
20.0217 1.33238 0.164214
31.1877 2.21352 0.3089
16.1813 0.909954 0.0974353
27.4594 1.08217 0.147478
26.2523 1.07845 0.18338
13.4185 1.47105 0.160908
28.7497 2.43848 0.303486
11.7917 0.436753 0.0452907
23.0411 1.47673 0.220268
24.5858 2.79688 0.352291
18.2442 0.631408 0.0969148
31.4395 1.85695 0.300928
8.76425 1.17617 0.163427
24.9014 1.14811 0.160504
16.8144 1.01079 0.183854
7.42686 1.84967 0.27274
13.9318 2.37215 0.360387
5.26051 0.418886 0.0603646
26.8262 2.70819 0.413104
3.48116 1.11096 0.179602
12.2933 1.65827 0.269692
4.74262 0.784604 0.142633
25.7903 1.39323 0.2184
21.2688 2.02269 0.416408
19.5184 1.91304 0.250652
13.1035 1.63981 0.246455
9.78457 0.819182 0.142299
16.9422 0.611122 0.12132
14.719 0.922578 0.150454
41.8556 3.41946 0.552341
8.65584 0.426683 0.0834899
4.39165 0.621346 0.106424
3.97789 0.617924 0.139783
14.5806 1.22527 0.188904
8.23206 0.480494 0.0718695
13.4016 1.08619 0.187839
10.7021 0.839292 0.163158
26.339 2.22206 0.44813
12.1888 2.50324 0.441765
5.81893 0.393653 0.0926109
6.12029 1.22151 0.265209
12.5688 0.683972 0.113532
4.80242 0.489745 0.124364
19.3432 1.47776 0.294464
13.8489 1.17099 0.210245
13.8007 1.33991 0.249203
8.58601 1.4715 0.342043
25.4836 3.62869 0.684681
12.0359 1.15366 0.270054
10.2231 1.05945 0.23936
22.2458 3.15166 0.703092
18.5254 1.55473 0.286571
10.8308 1.55751 0.436276
5.26374 0.419014 0.0817597
7.2985 2.02787 0.37855
12.435 1.02889 0.238163
15.9307 1.55715 0.351735
6.3793 1.59626 0.348219
6.5397 0.950971 0.197569
1.88637 0.459534 0.0784233
4.53449 0.614167 0.136092
18.4245 3.05884 0.712651
17.7738 1.12435 0.329463
14.5125 3.18871 0.767292
25.3258 5.12449 1.16614
7.44072 1.66625 0.455782
12.3488 2.14093 0.5138
6.55378 1.10507 0.340061
14.6686 1.81649 0.421631
9.56754 1.04317 0.317299
25.0724 2.75881 0.639231
9.28239 0.461542 0.165234
6.59527 1.44029 0.351142
14.9155 1.14645 0.313845
9.78964 1.24668 0.333566
7.66337 0.884861 0.220422
6.99773 1.23938 0.381712
14.5398 0.764206 0.179022
12.2218 0.938965 0.321282
2.69037 0.748223 0.172454
8.64016 0.602948 0.150141
6.49203 0.665627 0.225582
6.04303 1.19956 0.315204
11.7328 1.4686 0.436139
10.8495 1.67556 0.463067
5.26493 0.771396 0.227867
8.65512 1.34236 0.423837
6.11499 1.08713 0.279904
5.10708 0.612495 0.242436
11.7691 2.21547 0.565041
10.0355 1.50435 0.409872
10.4284 2.27671 0.723312
1.54045 1.15569 0.388406
20.1381 2.87629 0.799093
16.475 2.75818 0.899752
8.19232 1.76309 0.563707
2.80866 1.63101 0.618811
8.2504 1.43355 0.339534
6.83071 3.6855 1.27147
12.2574 2.08102 0.667314
24.5142 3.10051 0.911912
8.74777 1.3155 0.524308
3.32184 1.26737 0.380099
3.67233 0.168511 0.0529021
11.7806 2.6196 0.877874
7.70517 0.858865 0.407462
4.88653 1.91381 0.709877
11.4454 2.1632 0.607492
2.90263 0.899391 0.35536
7.08986 2.02745 0.621427
7.01103 2.2177 0.681802
9.11543 1.48118 0.531244
15.233 2.73289 0.959854
3.2835 1.29518 0.493942
20.063 3.58305 1.20605
8.99378 1.26782 0.525341
6.11064 0.610648 0.332404
12.9994 3.25469 1.12366
3.31793 0.464704 0.25928
14.1622 1.98226 0.779836
13.6003 1.9116 0.568825
10.9944 1.96314 0.873187
14.5332 1.67521 0.463201
8.7618 0.886012 0.402471
4.53712 0.977775 0.427933
6.84173 1.35375 0.548871
10.845 2.39984 0.958001
11.3614 1.41817 0.458558
5.00091 1.54606 0.667652
5.38558 0.563485 0.17803
12.7503 2.42981 1.0158
4.24629 0.166116 0.0117676
7.52815 1.18074 0.3684
11.6132 1.83932 0.820285
2.0776 0.748468 0.24469
9.5806 2.20983 0.909296
5.29297 0.630702 0.263353
6.21796 1.00873 0.339972
4.95829 2.44396 0.954171
15.943 2.9241 1.42304
4.96192 1.62393 0.650074
5.02158 0.960171 0.402989
3.1413 1.69577 0.732363
4.67606 1.12251 0.689083
11.5804 3.20955 0.979073
6.26412 1.04183 0.454901
2.67648 0.823445 0.438891
5.92142 0.828608 0.399681
7.80352 1.7947 0.754873
8.38912 0.759791 0.341722
2.28507 0.537684 0.278318
12.1871 3.56522 1.69334
1.97358 0.821315 0.445596
8.89983 1.1672 0.410093
4.55884 0.526309 0.278791
8.21313 2.0496 1.2317
5.10797 0.386967 0.0483849
13.989 3.28777 1.81314
10.9513 3.64284 1.22817
2.39007 1.2088 0.498155
6.02368 1.57273 0.648091
5.942 2.66266 1.35987
3.23796 0.45158 0.183361
1.12574 1.58926 0.900801
6.98446 1.15719 0.553405
6.08939 1.57955 0.697219
3.27572 1.02339 0.510565
3.69398 0.465845 0.274206
3.77404 1.19816 0.706603
5.73168 2.29752 1.0913
5.63959 1.89604 1.26987
7.24248 0.894634 0.303276
4.22885 1.29551 0.848678
3.21171 0.930013 0.283988
4.65249 3.14917 1.50448
4.37829 0.412884 0.20505
5.29754 1.50029 0.83344
1.51314 0.455921 0.32632
7.66355 2.90981 1.56566
4.11552 1.41571 0.814231
6.748 1.77663 0.864092
3.1677 1.78829 1.01854
4.32993 1.03304 0.777065
7.50087 0.699342 0.389465
5.4565 1.3313 0.809636
1.05043 0.682387 0.275821
1.62654 0.438614 0.308417
2.03617 0.368144 0.27101
2.79702 1.45752 0.84084
3.08075 0.984703 0.659348
3.61969 1.03642 0.509739
4.47254 3.14155 1.54638
2.53607 1.36148 0.647566
3.76356 1.31993 0.829998
3.18504 2.79726 2.27576
11.6005 3.75816 1.67628
2.72782 1.4077 0.723577
8.77658 2.41653 1.21634
5.54544 0.943603 0.546562
5.08648 0.467715 0.346285
3.6122 1.9487 1.20592
7.4089 2.09596 1.11296
5.66414 2.03091 1.04594
2.84807 2.26806 1.47092
4.69487 0.933431 0.473769
3.62506 1.76239 0.955199
7.01855 1.2786 0.623417
3.24182 0.826864 0.623411
7.36861 1.15217 0.507547
8.27975 2.15591 1.48957
1.93273 1.5658 1.03899
8.33737 4.22048 2.69753
1.63056 0.466258 0.335611
5.01845 3.40351 2.28767
2.99576 0.564809 0.561156
5.57927 1.51576 1.02347
2.57644 2.04467 1.38124
2.39689 0.756708 0.438267
4.43668 3.22421 1.97273
5.03827 2.82255 2.01996
3.169 1.10289 0.805525
4.92758 2.14851 1.40617
8.02585 3.28172 2.05123
9.63808 2.21794 1.50393
2.87514 2.98408 1.97933
5.26267 1.45973 1.01564
1.89156 1.40588 1.05862
2.53447 0.91749 0.755352
7.71113 1.94536 1.02901
2.85221 1.75352 1.49788
9.18413 3.53705 2.17741
1.65249 0.238972 0.260175
5.4685 1.22791 1.064
3.44454 1.00889 0.479382
2.57955 0.748234 0.819265
7.51488 2.26404 1.25066
2.48606 0.376313 0.303326
3.92809 1.70571 1.21916
6.4977 3.41596 2.02981
3.40384 0.87377 0.642472
3.20365 1.94699 1.38264
6.28412 1.58186 1.31254
7.57924 2.91438 1.94438
3.00246 0.662205 0.557268
1.62733 0.757947 0.560538
5.13352 2.08863 1.89847
2.65583 3.1151 2.28133
4.96293 1.12441 0.443814
7.00053 3.9543 3.1426
2.25924 1.50524 1.42739
4.01415 1.04147 0.807659
0.681954 0.56755 0.618307
2.41878 1.3286 0.928512
2.04976 1.48441 1.23513
1.19496 0.117198 0.450341
2.60453 2.39259 1.07377
1.54752 2.18517 1.84969
5.33925 2.86529 2.2737
3.54603 3.84239 3.3393
5.49225 0.822696 0.777668
3.53096 2.92444 2.00555
3.75985 0.802937 0.794012
1.33392 1.35723 0.925341
2.05455 1.0296 0.80969
2.83787 1.92711 1.78127
3.19671 2.19771 1.86234
1.30259 0.443771 0.207707
2.0417 2.37108 2.05026
4.54337 0.868857 0.919093
1.27076 0.596619 0.419517
2.0307 0.727682 0.402135
2.4035 0.62571 0.494707
3.6158 2.0767 2.03206
1.01517 0.977024 1.24024
4.06663 0.883388 0.603078
3.34278 1.66533 1.33029
2.17784 0.527658 0.675037
0.797375 0.712938 0.810993
4.91711 1.80419 1.26395
3.01019 0.69223 0.681887
1.10865 0.774157 0.727067
2.32359 1.01545 1.42625
3.04372 1.34071 0.895467
5.04918 1.66445 1.55565
4.78451 1.33334 0.617169
2.33633 0.882632 0.880939
8.26196 3.59511 2.3789
7.15545 6.18126 6.0541
1.16257 0.417503 0.331176
1.51061 1.08151 0.999617
1.32409 1.38019 1.23959
1.8072 0.985311 0.845626
2.81407 1.13711 1.1788
5.71342 1.76986 1.60119
3.22628 1.64244 0.85341
1.43289 1.97408 1.78695
2.19095 0.57319 0.457955
1.81721 2.48881 2.70292
5.25756 4.31077 4.26554
2.46209 0.628366 0.356729
3.80589 1.628 1.59503
2.5249 0.932623 1.46036
3.75219 2.12037 1.39182
3.30604 1.31256 1.52945
4.31948 1.40276 1.19685
2.34845 1.39155 1.51658
6.1943 3.79498 3.31271
1.49485 1.73148 2.38704
6.02041 1.80246 1.64353
3.00523 1.70452 1.20058
2.01806 2.42783 2.05869
5.04437 2.18917 1.99559
3.20691 1.75428 2.48691
2.83299 2.24038 1.9302
1.33365 1.74248 1.70032
1.77792 2.25485 2.34525
2.46155 0.664815 0.943499
2.75527 1.05641 0.904359
1.71158 0.35257 0.285264
2.87308 1.527 1.4177
4.34921 1.72917 1.29027
3.84925 1.69425 1.87538
4.7783 4.02835 4.27798
2.05539 1.23679 1.92218
1.47767 1.23633 1.36522
0.923627 1.20714 1.56902
1.4401 2.97993 3.45652
4.2955 1.99741 3.0408
5.72828 1.99973 1.24852
3.35981 1.1711 1.16896
1.04572 1.28381 1.01516
2.62817 1.32735 1.31147
1.19695 0.833426 0.374844
3.8553 3.30113 3.91397
2.66256 1.58679 1.08759
4.51868 1.85461 1.89808
4.66192 2.8009 2.39552
3.57911 2.0585 2.38196
1.51433 0.540027 0.645502
2.85342 1.42955 2.05683
3.47042 2.89061 2.42542
1.3851 3.14184 3.8448
5.53836 4.80158 6.32528
2.77953 2.38853 1.6152
2.31377 1.73081 1.67608
0.846756 1.07859 1.89108
1.69286 0.945536 0.979193
4.14391 1.83352 1.47367
1.7079 1.68185 2.15456
2.23217 1.6439 2.65929
3.13947 1.61296 1.27911
3.70609 2.33752 2.54862
4.30575 2.16727 1.79219
5.02312 2.85782 3.31443
3.9568 4.28523 5.66195
1.4572 0.215327 0.969046
1.87176 1.61206 1.58968
1.5165 1.34231 0.848962
1.10207 0.811697 0.434435
2.76769 3.01368 3.78645
1.87988 0.586166 0.932046
0.954634 1.38112 1.37389
1.0679 1.69927 2.26651
3.45588 3.46369 3.56215
3.55871 2.86156 3.91916
0.763099 1.52743 1.49552
1.3516 0.710974 1.75628
2.92592 1.96141 1.48766
1.77357 2.00385 2.58062
2.16258 2.18296 2.23902
3.93524 2.47246 2.28756
4.1274 2.11752 2.59067
1.594 1.25584 1.6697
1.08001 2.26734 2.91245
1.52196 1.32333 1.51239
2.18922 1.62411 2.14833
2.85478 2.65934 2.35019
1.77199 1.59698 2.54527
5.41083 6.60976 7.95025
0.647394 1.74063 3.04717
6.37926 5.14303 5.19847
2.86959 1.20926 1.66163
0.735099 0.226594 0.532328
2.764 2.49056 3.14095
2.16021 1.6465 1.65397
0.372865 0.82668 1.61198
2.06251 3.62524 4.01959
3.60502 1.28978 1.27256
4.2816 4.15569 7.1235
3.41418 2.7442 3.12604
1.76233 2.88217 2.28872
1.83302 1.66957 2.3018
0.766724 1.25892 2.25143
1.61419 2.25558 2.81387
4.84193 3.3596 3.76358
1.33085 0.881793 2.70964
3.39467 3.88565 4.2989
1.57571 2.12901 3.15664
1.99651 1.81472 1.64989
1.37129 3.00211 5.28308
2.75642 2.8202 2.73448
2.99368 2.19079 3.17131
1.45362 1.98328 2.39807
2.20704 3.22636 5.83421
6.3861 2.72917 2.27493
2.21069 2.13098 2.27094
1.73692 3.24555 4.17372
0.781613 0.769055 1.38071
0.999144 0.408042 1.04844
1.5489 3.56707 5.32894
1.46767 0.613662 1.34643
2.28484 3.33699 4.54338
3.05779 1.32913 3.59128
8.3278 6.71642 6.91448
2.50381 1.93942 2.77937
1.2295 1.19533 2.68583
2.66185 0.611509 1.00523
5.12565 6.16125 6.62375
0.456166 0.381451 0.489866
3.26997 2.95805 4.13645
0.897695 0.753964 1.58834
3.36302 2.34391 4.11679
2.25734 2.31738 2.34474
0.885626 0.81444 1.12398
1.91753 1.54405 1.33036
4.09623 4.32024 6.17347
1.82818 1.66788 2.09475
0.905975 0.831978 1.22099
4.08997 4.18344 6.64104
1.71091 1.38343 1.81703
3.46573 2.22529 3.19209
1.23013 1.24668 2.93968
1.67819 1.44131 1.83446
1.27968 1.64051 3.52251
2.30433 2.1272 3.06514
5.60111 5.79101 7.5448
1.64867 1.78336 4.43176
1.97645 1.25349 2.63536
1.73541 4.95243 5.37181
1.93128 1.35101 1.49634
1.45608 1.29224 1.76175
1.79486 1.38127 3.50803
2.16998 3.18903 3.43366
1.13239 0.879466 1.4872
2.60959 1.71697 2.68125
2.01333 1.27126 2.79476
1.39049 2.57673 2.93418
2.91032 1.4411 2.25596
0.791481 1.50819 2.54766
0.943211 2.22681 3.47918
3.14418 2.32695 3.89855
2.03346 2.20063 2.80026
0.8023 0.65323 1.55954
2.93444 4.91522 8.07317
2.00699 2.30146 4.8652
3.3895 7.13773 9.1044
1.43714 1.56934 3.71659
2.834 4.09075 4.85176
1.74781 2.54134 4.42377
2.23248 1.69401 2.45358
2.00628 1.35686 2.23406
1.18615 1.5608 1.16955
1.28342 3.65763 6.0391
2.94035 2.05558 4.00061
0.176473 1.65328 2.32797
2.24635 1.86986 3.8281
0.864176 1.80388 1.91947
0.491287 1.24161 3.43871
1.10394 0.858156 0.736738
0.742737 0.979766 2.77022
1.2952 0.701198 1.35069
1.13567 1.1261 2.47103
2.04528 1.09727 1.22253
1.7057 1.1801 1.86257
1.349 1.12335 2.53215
0.762402 1.94464 1.65086
0.930616 2.32478 3.85265
1.14521 1.02446 1.50757
1.76991 0.552245 0.800839
0.67606 0.381602 0.690436
0.946214 1.40265 2.23996
1.2992 1.21117 3.0442
1.85504 3.15997 4.63897
2.46814 3.53817 4.40433
0.83385 0.724074 2.62563
3.39249 2.61386 3.0266
2.03735 4.0282 7.58596
2.04848 2.86678 6.29295
2.84738 4.67502 5.60828
3.33261 5.0086 9.15123
3.25206 1.69693 2.40948
0.911542 2.82901 4.98615
2.09826 1.25685 2.62794
0.923129 1.42069 2.86678
2.61528 3.64023 5.59105
1.64634 1.44029 3.84041
1.82462 2.18797 5.36444
4.36589 2.42791 2.67626
1.39566 1.64197 1.98311
0.648974 1.74467 4.48452
1.63638 1.22724 0.987761
1.42484 1.33837 1.41139
0.26916 1.60108 2.28668
3.22494 5.32046 9.96462
1.5515 1.80094 3.48644
1.64603 0.553937 1.42319
3.59525 2.96729 4.56566
0.839855 0.947516 1.71691
2.10371 2.76901 6.52627
1.64813 2.53701 3.14705
1.1438 0.919165 1.19376
1.78932 3.22207 7.27984
1.76385 2.47906 3.24149
0.922565 1.73225 4.28523
1.91012 1.23708 1.95735
1.21302 1.87946 4.96336
1.9394 3.0015 3.61795
1.87666 5.23977 8.27156
3.07375 6.69696 10.9989
1.02451 0.637455 4.33047
3.61664 2.90648 3.96521
1.18707 1.59143 2.70214
2.08887 4.71238 8.96297
1.11611 1.64925 5.0124
1.76204 0.39127 0.613797
2.20948 2.4156 3.51065
2.19529 2.69026 5.2721
1.48761 1.92815 3.18928
0.727755 1.02346 2.32966
1.67221 1.88667 2.22488
1.66318 2.17188 4.4944
1.4569 2.36054 5.39461
2.23075 0.602448 0.286912
1.99218 3.39624 5.54063
1.20914 1.49409 3.46688
0.793711 0.709567 1.37848
0.47277 1.97743 6.34123
1.11911 3.24759 4.6484
1.0041 0.475634 1.23285
1.62433 1.53042 4.16201
1.53043 1.32673 2.32196
1.19799 3.68844 4.68978
1.37972 1.53203 2.61176
0.493202 2.45252 5.66827
1.77227 0.79678 1.95522
1.10862 1.33412 2.2006
1.62653 4.24134 8.4009
1.82728 0.698905 2.61488
2.83478 2.9511 4.00789
1.55466 1.26534 1.78862
1.53934 2.93606 10.2955
3.0191 2.3018 2.13337
0.868177 1.81367 2.56409
1.10226 3.85176 7.8138
0.931126 0.991315 1.62369
1.18079 1.16532 1.44713
1.05336 1.85761 4.74535
1.36565 2.48426 3.4381
0.576317 2.15208 5.24438
1.86157 1.70129 3.93384
2.32393 2.80252 4.80766
0.956859 0.581845 1.52789
0.37204 0.320511 0.650462
1.27444 1.88621 3.67264
1.06875 4.11736 6.9762
1.38121 1.04245 3.61275
1.481 0.978911 2.915
2.05892 2.40775 5.84141
1.99549 1.56092 3.62124
1.22257 0.811336 1.06585
0.734117 2.21203 6.59741
2.88673 3.76318 7.74864
1.60195 2.9815 6.46813
2.2765 1.29923 1.23133
1.41672 2.63602 5.57036
2.16012 2.05556 2.20411
1.27119 2.0092 4.45952
0.694069 1.11176 2.93128
1.30875 1.90094 3.03742
1.57112 2.09121 4.87391
2.21421 1.87993 2.54158
1.73226 2.18739 3.53963
0.41151 0.0745191 0.874921
1.45116 3.29365 8.54752
2.86724 4.92765 7.64513
0.663941 1.1537 4.59307
1.0293 0.492088 0.53366
0.908577 2.16161 4.56049
0.916687 0.700402 2.40439
0.633164 0.938832 2.77087
1.65633 2.79246 5.57247
1.50544 4.39464 8.04988
1.76474 1.96196 4.39245
0.613261 1.88084 3.42889
1.02218 1.16476 2.51861
0.898474 1.22346 2.48165
1.35883 0.677308 1.74421
2.15479 3.06112 4.91292
1.39645 2.99963 5.55194
0.260869 1.155 5.26079
0.778945 1.51629 2.81959
0.81607 3.8312 7.49043
1.2751 1.65327 4.31867
0.666766 0.813351 3.06393
0.809115 2.63092 6.17373
2.78386 3.3022 7.60561
1.33867 1.33983 6.46865
2.92145 3.5113 5.68318
2.28872 3.56851 7.66858
1.3524 2.67622 7.63593
2.22772 1.96408 2.50553
0.90897 1.2131 3.38545
1.86216 3.58891 9.93448
2.79006 3.37188 4.89896
1.43664 0.905029 3.43081
3.50227 4.27499 6.18374
0.98391 1.40409 3.49326
1.11334 2.36012 7.59738
1.85567 2.27465 4.06604
0.465233 1.73871 5.04782
1.39004 2.31552 4.47513
0.714837 0.758185 1.22842
0.624846 2.15496 3.30773
0.402621 1.99646 5.11107
1.66269 3.0264 7.03803
0.843772 0.235496 2.00805
1.23416 1.01272 3.32977
1.51693 1.11994 0.975147
1.07206 0.82779 2.10833
1.60921 2.20675 3.48801
0.865173 1.67128 6.69989
1.20676 1.85266 2.9142
2.0412 3.39773 6.81838
0.424962 1.57601 6.81721
1.81624 2.81593 7.0339
2.30155 5.01069 9.7646
1.10305 1.73924 2.83286
0.891937 3.13702 7.41104
0.83038 0.604594 1.36884
0.480244 1.30164 4.92332
1.47804 1.99075 4.33307
1.45635 2.53984 3.92963
0.474915 3.4083 10.949
1.68576 0.423753 2.42351
1.2005 3.54351 9.77936
2.83717 5.435 10.279
2.1237 2.13564 3.28145
0.717701 0.752136 0.858415
0.771535 0.462498 0.715559
1.09307 1.70246 6.9414
3.11505 4.06266 6.46079
0.486577 1.76621 7.84973
1.90158 2.0343 4.3112
0.785295 3.39631 9.70248
2.43916 3.44661 7.70129
1.42329 4.35483 14.0803
1.15144 2.83241 6.12202
2.23936 7.45644 16.846
1.78916 1.30663 1.98336
1.08896 1.94646 3.59384
0.553808 0.821991 2.588
0.525078 1.45 2.15161
0.51715 1.12179 1.81283
0.766139 3.98725 10.9105
2.27435 3.07284 11.5637
1.96629 1.32572 1.57363
1.50372 2.24462 4.66847
1.01655 1.50997 2.24953
1.5529 2.70153 6.90018
0.525715 0.667488 0.581581
0.730314 1.65629 5.85708
1.114 2.29561 9.38035
2.82616 4.88522 8.54749
1.74735 1.72248 2.17313
1.27166 2.5335 3.33672
1.59061 2.62701 6.46337
0.329583 2.18275 8.94984
0.663673 1.959 4.07917
1.30608 2.57364 8.81576
1.01532 1.35532 3.22088
1.52281 2.65919 6.86414
0.26736 0.452713 1.00849
0.36698 0.575754 1.55455
0.492395 1.11137 9.30839
2.44275 3.43194 6.35588
0.822569 2.66473 6.51909
1.2413 1.38122 3.76262
0.791481 1.45472 2.0579
1.19229 6.09676 18.9367
1.46976 2.72745 5.51459
1.72061 7.48604 14.1488
1.49788 2.46757 10.5382
2.41162 2.93803 9.35094
2.89333 5.45651 12.4335
2.10174 4.2606 8.87011
1.0627 1.75382 4.41967
1.06602 3.88832 13.6382
2.20262 1.9125 3.56593
0.47968 0.174903 3.42194
1.91679 1.58776 1.05734
1.48184 2.98024 6.59297
1.12725 1.8057 4.62218
1.33081 2.90296 6.52084
1.39481 1.61937 4.90402
0.170473 0.921114 1.87422
0.716179 0.81242 1.94174
0.14939 0.506074 1.24667
0.811916 0.269351 1.09102
0.477319 1.46814 3.90537
1.11102 2.10367 5.08692
0.470219 2.86308 22.1035
3.14073 4.3968 2.65998
2.18358 7.39541 16.0883
1.60691 1.28882 4.75577
0.355561 0.396908 4.12769
1.71853 4.33145 9.50884
2.65779 7.1319 13.9567
1.02258 1.36771 6.13726
0.593421 2.30636 6.31765
1.39506 6.30919 15.9261
2.33943 3.39506 5.10305
0.583554 5.60479 18.7672
1.98223 2.66415 6.50849
0.207092 0.485173 5.21842
2.10934 3.02301 3.67517
0.202626 1.93712 5.63912
1.25677 1.43057 6.28675
2.53406 2.59511 3.79655
0.723633 1.20652 5.18914
1.28247 1.46084 5.05875
0.75616 1.25454 4.44916
1.64613 3.53211 12.2308
1.63832 3.37881 7.41546
1.77678 6.91183 18.3858
1.94863 4.47905 8.47887
0.975532 1.59688 8.96956
3.35569 5.6419 13.8541
0.331665 1.62583 5.48429
1.90531 2.98794 1.98305
0.882719 4.48076 14.187
0.871313 2.39705 13.1268
1.90414 1.75326 2.58483
0.804372 0.819763 2.05361
1.03596 1.2498 4.1614
0.18453 1.72486 3.52894
1.16049 0.281803 4.82817
2.08538 5.37179 9.01951
0.752731 0.951221 2.98037
0.25876 0.518012 1.39513
0.408102 0.927688 6.80322
2.46868 2.38092 5.46448
1.99088 3.89759 8.90868
1.65111 4.21159 13.8407
1.6182 3.44151 4.71801
0.570858 2.87181 13.9322
0.970148 1.90966 2.3665
0.357854 1.53025 3.99908
0.974742 1.99599 6.67989
1.17965 1.3013 3.9469
0.184421 2.37511 7.14792
1.46278 0.635807 0.39057
0.338672 0.511333 1.96042
0.356183 0.391835 3.26439
1.08094 2.77136 4.322
0.2486 2.62196 13.6963
1.45531 1.59469 1.73038
1.40905 4.33927 7.57639
0.569007 4.2609 18.561
1.02046 2.03935 3.77055
1.10171 2.3218 3.83225
1.60196 2.79711 8.58256
1.71236 3.30922 9.74482
0.829239 0.642603 2.45542
0.872221 0.780582 0.969341
0.648208 1.5719 3.05746
0.949674 1.81341 7.87273
0.993378 3.43954 13.3495
1.17577 1.42801 0.367535
0.626983 2.43046 7.18886
1.1114 2.1638 8.91084
1.24874 4.66012 13.1538
1.2541 0.663465 3.57694
1.22817 2.43149 3.62108
1.2723 2.19571 6.92877
1.00928 1.0224 4.1077
1.38781 7.3032 19.1479
1.20902 1.01682 9.50377
2.11172 6.0893 20.3214
4.31715 6.91012 10.1085
1.03115 4.56832 23.5116
3.34929 4.97746 8.08305
0.648407 2.49031 9.9032
2.50393 5.40397 17.5116
1.50607 1.63365 1.61989
0.956493 2.1187 4.77727
1.13212 2.58069 10.5908
0.765066 3.77533 15.1141
3.58727 5.3426 8.27471
0.638442 0.362728 2.2681
0.928516 2.78274 8.11049
1.32332 3.27203 11.4374
0.723971 0.796525 8.21834
1.82745 2.13236 1.4561
0.336479 1.27696 4.49679
0.940112 1.95766 5.61542
0.696972 1.23855 2.24326
0.303417 1.47798 3.92553
0.648256 0.991233 4.59281
0.191759 1.65661 2.8007
0.503261 2.08563 6.28716
2.15713 4.26591 14.2225
0.725124 1.55572 2.73638
1.33284 3.01777 11.8773
0.859621 1.68883 4.97852
1.00051 5.46054 10.3312
0.743586 1.0273 1.06876
0.301597 3.30896 14.4787
1.30344 3.18616 8.55294
0.507721 3.027 18.3168
3.65598 3.4775 1.62224
1.10609 2.99318 2.7059
0.933016 7.3541 33.9779
4.01229 3.27031 4.60576
0.596676 3.85048 17.4061
1.90279 1.56245 2.27947
0.780383 1.3479 8.34418
1.07024 2.28984 10.657
0.517522 2.19917 4.66534
1.13199 5.25665 13.5556
0.74513 0.368824 5.16836
1.11703 1.62101 1.64175
0.567304 0.834043 1.65999
0.456108 0.916211 3.57086
0.852698 2.24403 10.5108
1.38951 4.54801 10.8327
1.25697 0.70301 4.15544
0.177937 2.77643 7.28195
1.40808 0.766 2.93697
1.00322 2.64859 7.44764
1.55568 0.610498 2.37935
0.840723 1.30964 4.93926
0.683618 0.968144 1.70468
0.966463 1.59863 4.13287
0.159577 2.58263 13.9357
1.83824 3.61367 9.2957
0.965319 4.16426 11.7214
1.10433 1.65689 6.71105
1.78968 1.19986 1.74966
1.01132 4.00205 18.0048
1.75804 2.5942 5.04727
1.31265 3.88732 16.7935
2.58354 3.55273 3.67055
0.677654 2.97467 10.8224
0.867913 1.58818 9.97538
1.00798 4.03358 7.59504
1.06567 0.935048 4.22278
0.917064 1.77792 7.7515
0.985815 1.94463 5.94941
0.868826 3.34107 8.71332
0.793307 2.42843 20.3478
3.63469 8.02408 15.2954
1.71795 0.514783 7.67251
2.22282 2.24477 5.9512
2.21142 7.7758 17.2048
1.06341 0.57307 2.64916
0.353899 4.11829 13.8772
1.43589 0.345828 4.20415
1.23024 2.02547 5.60368
1.16957 3.5524 16.2061
1.26008 9.1311 29.6835
2.40245 3.94489 18.9463
1.19682 3.49302 4.23292
0.575323 4.62451 26.6713
2.71256 12.9622 19.4427
1.00401 4.92373 18.464
1.2498 1.76276 14.9929
2.16423 2.43839 4.86301
0.58163 1.83092 4.14908
1.10009 3.64116 16.8688
1.07203 1.67304 9.51591
2.52205 4.37988 4.80417
1.57493 2.99048 8.32028
1.07736 2.91724 15.8298
1.3173 5.87226 24.2277
2.7459 6.63469 15.0078
2.13615 7.6908 30.3379
1.7094 3.46241 2.04133
0.20766 2.06513 9.43739
1.6022 1.78669 3.50539
0.466216 3.49742 13.9212
1.60885 0.884235 6.13327
1.22528 1.69913 2.10084
0.875296 4.31029 27.6698
3.7536 12.6385 36.7709
3.31803 3.74853 5.38832
1.17406 2.4206 5.70233
1.34629 2.01716 4.96616
0.421664 0.617106 6.6695
1.61849 1.12736 6.87782
1.42912 2.89715 6.63216
0.761633 5.13702 26.3363
3.41313 5.41536 10.633
0.961783 2.50834 10.6015
1.94851 6.88631 26.4091
1.23377 5.79329 17.6245
2.27203 3.0597 8.53863
1.87732 1.08629 5.11892
2.25508 3.84186 8.73397
0.599231 0.860302 3.69265
0.467731 1.06822 1.92792
0.407983 1.49353 11.8553
1.12803 3.06622 7.74985
1.28723 0.89812 8.80939
2.47547 4.74108 9.51848
0.433418 1.20815 13.0053
3.36335 9.14982 14.9252
0.11195 4.60899 29.5167
3.45885 1.85835 9.72524
2.88588 5.92915 10.9034
1.33372 3.01512 7.09246
0.44147 4.46758 37.4629
3.52138 7.06397 3.70818
0.649099 2.95871 7.93961
0.554516 2.40679 12.8653
1.96885 5.51998 22.2898
1.90367 1.96442 5.12864
0.987861 2.69965 3.95947
0.404549 1.51746 11.8478
1.36004 3.19369 5.4188
0.820201 0.934997 4.40044
1.47267 3.20674 10.4195
0.70933 2.46224 14.9373
1.12904 4.27465 10.2835
1.28445 0.834707 3.49312
0.602725 2.05565 7.06245
0.499643 1.315 7.6926
0.69642 0.938163 3.08431
0.381987 1.43867 4.05271
0.740629 0.849488 4.0662
0.76289 5.6016 18.3595
2.43445 0.775521 8.46767
2.94512 5.89837 12.4093
0.416071 0.160756 4.09255
0.823785 4.24631 14.1587
0.928602 1.57207 3.76545
0.751907 3.20289 23.1988
2.16404 6.64614 10.415
0.987764 1.38602 18.8021
2.62211 7.55186 15.5828
1.01148 1.05203 0.956373
0.501264 3.39865 17.6711
1.81684 1.48873 8.78016
1.03358 7.04598 18.0832
1.24588 2.43032 13.5286
1.37249 4.47047 16.564
2.32922 3.11442 8.30551
0.509814 2.70898 22.4331
2.114 4.19502 4.03126
0.765829 2.15718 1.84806
0.721887 3.90961 20.975
2.06387 1.72058 8.20065
1.09671 3.89561 7.12564
0.683301 3.01585 10.7681
1.10242 1.28331 1.00088
0.572427 2.55479 9.71611
0.755874 3.28011 8.60188
0.855777 1.41805 9.1518
1.15602 2.15017 5.95377
1.13427 2.219 3.40865
0.494012 1.72109 12.8366
0.985753 2.36914 7.64527
1.50572 5.01728 24.6903
2.57465 3.6142 3.73141
0.835463 5.58329 14.7488
1.34074 0.648454 6.54447
1.24032 1.41718 4.18967
0.478235 1.17878 11.7956
1.94594 3.32543 4.17284
0.212187 2.34007 6.82431
0.368192 1.80062 6.55402
0.994212 0.751784 3.96104
0.594665 1.60625 6.97851
0.864347 2.7439 9.26635
1.41274 5.15403 21.2525
2.2395 7.48843 26.4631
2.9329 4.64141 6.73284
0.992733 2.85854 18.0166
1.65286 4.56084 16.7199
0.936175 5.4555 15.9612
0.786147 0.833521 6.44872
0.763835 1.83092 1.73401
0.232149 2.73795 17.5029
2.39589 3.05917 9.86375
1.1435 2.51226 3.62108
0.470493 5.7763 31.3945
3.00887 2.24202 2.87059
0.840016 2.72934 6.44125
0.945317 0.400836 7.52075
1.51069 3.80738 6.89693
0.599553 1.48853 13.9237
1.43893 2.46849 5.90431
1.13144 3.0043 3.52068
1.0978 4.61831 11.2389
0.330235 2.50886 20.4656
1.55796 1.97091 6.76021
0.774819 2.19519 7.6887
0.984282 2.52663 10.5353
1.24792 4.73771 14.1636
1.40457 2.49772 6.22859
1.08003 2.77329 26.0069
1.35073 9.78832 29.249
2.89488 2.45802 4.59929
0.445968 1.70672 3.48803
0.382033 1.60399 5.62395
0.448694 1.01222 11.8211
1.66476 6.10374 19.6743
0.684117 2.86067 4.34237
0.878269 7.89051 20.923
1.24645 1.19387 15.6122
2.07088 3.47091 6.62072
0.467181 2.2686 8.28837
1.08171 1.58426 3.24673
0.627867 2.26575 6.93141
0.777822 2.18634 15.9692
1.93959 2.23799 8.59613
0.890865 5.30244 14.8854
1.6562 2.40641 11.5342
0.497415 3.49228 15.6775
1.22258 2.5388 9.49212
1.34172 5.87995 21.1519
1.71937 1.63842 5.02965
0.649086 7.86848 33.2308
2.91749 6.13027 17.4108
1.05232 2.71085 9.82541
1.40926 2.51814 2.4122
0.529988 2.0197 4.3711
0.500436 1.54649 3.53793
0.573432 3.40449 12.8786
1.13239 0.680421 8.34381
1.1566 2.05726 12.3035
1.2123 1.65725 15.4017
1.10135 1.14963 8.14443
0.645308 1.01616 8.48618
0.751674 2.46964 10.1983
2.21 4.37764 6.29445
0.811777 0.946602 5.88549
1.21471 3.23419 10.9789
0.753001 2.27075 7.70275
0.81447 1.70826 11.6424
0.936195 5.54765 9.19532
1.12344 1.2107 2.49283
0.596743 2.28008 7.90246
0.408611 2.87432 18.4797
1.27768 1.64397 1.38585
0.332765 2.09285 10.0676
1.16013 5.09225 21.7347
1.87405 1.47267 2.93688
0.920594 3.81421 18.9544
1.00628 2.82312 6.59239
1.04754 1.42295 10.0521
1.27873 2.68845 5.11264
0.869613 2.17269 2.70657
0.503722 1.25344 1.98735
0.439116 1.14334 1.45743
0.193143 4.26153 33.5055
2.77111 5.029 9.23423
0.597349 0.919582 5.48451
0.541649 6.0208 24.9568
2.23171 2.74619 7.75513
1.03842 2.10135 12.1088
1.50251 1.81698 2.60054
0.648969 4.87737 18.7216
1.72327 1.46284 6.23409
0.715978 1.53614 12.8469
1.20154 2.72556 3.32918
0.504371 0.518872 4.74751
0.616399 3.69346 21.3056
1.9899 7.78417 21.9544
2.3402 3.31971 10.6592
0.275294 2.6002 6.48814
0.773401 1.44301 5.98568
0.545889 2.50999 10.234
0.799819 0.63476 10.9226
0.970025 2.49115 2.65375
0.791678 4.37645 17.3913
1.485 1.15767 6.34529
1.26475 3.72877 12.404
0.911799 0.564228 2.45306
0.431032 2.70506 10.4712
1.24173 1.57545 4.8768
0.249261 1.53403 14.6939
1.82095 4.7281 6.12021
0.643641 1.32675 5.76404
0.0352804 1.37207 2.72201
0.454359 1.68705 11.9867
1.45365 0.871109 8.62362
0.932329 2.27475 2.61719
0.808816 2.65789 10.974
0.655425 3.27163 12.4991
1.22159 2.5762 6.76294
1.25519 9.48829 64.27
3.38884 11.7607 19.8063
1.52263 3.45235 5.96385
0.840037 2.45285 20.6954
1.33262 7.17951 25.3009
2.39421 4.24626 21.0976
0.981234 5.6403 16.9887
1.25192 1.32651 2.11395
0.435308 3.05105 9.64997
1.29415 1.5924 3.14712
0.356775 0.79283 8.83657
0.566483 2.52147 20.0081
1.34516 4.97815 13.9655
1.15878 4.44838 13.1079
1.24669 5.84609 28.843
1.5423 3.33327 7.40749
0.88001 1.83655 10.4296
0.905265 5.05173 10.8842
0.937566 1.39002 9.29193
0.85892 11.8621 58.0575
4.46642 1.68844 21.0229
3.34454 12.131 14.8572
0.403015 9.50748 55.2392
3.8619 6.44261 3.99523
0.209811 3.3897 31.2315
1.70262 3.73044 7.21313
0.454172 5.33792 36.3568
3.01649 5.13797 1.3433
0.416517 1.85142 8.12059
0.755551 2.92663 7.66451
0.14879 2.2712 13.5991
1.64572 2.25704 4.77894
0.642344 4.75397 20.7457
1.53693 4.32104 18.789
0.801959 3.49581 20.4353
1.54552 4.5071 8.38662
0.426525 0.878923 7.84621
1.0133 6.22688 25.6784
1.6838 2.78759 2.46468
0.474425 0.698916 8.5006
0.908642 4.81629 12.8898
0.51876 4.91407 17.5008
1.16585 1.12863 17.524
1.77847 4.05523 14.2241
0.938387 3.99848 12.9023
0.901168 4.88619 11.7443
1.46589 2.54598 17.3539
1.33476 1.40698 1.36103
0.377678 0.712225 3.93107
0.461856 2.94531 32.2715
2.58271 6.72062 4.91081
0.386426 2.90765 8.26877
0.654956 3.55021 29.9809
1.48781 7.07572 11.5591
0.618417 0.809421 11.8918
1.25118 3.14912 9.87401
0.637632 2.97969 14.9376
0.87379 1.75248 4.5595
0.484027 3.34598 18.0945
0.749083 2.90044 5.11308
0.52671 4.93846 18.8199
1.08444 1.95536 14.9231
0.996155 3.77773 14.799
1.44777 5.66016 6.31626
0.802019 3.02424 24.3557
2.29096 3.59091 7.91817
0.901146 2.10671 11.7067
1.13176 0.962583 12.6789
1.08874 5.00249 11.3546
1.15253 1.84268 7.47857
1.13111 2.5404 4.15583
0.383378 1.51574 4.24926
0.10912 1.13982 5.78902
0.373426 1.42534 14.8333
1.37367 3.71939 2.83897
0.28007 3.04053 25.1356
1.31734 3.50155 6.87381
0.961392 1.67508 12.5372
0.829516 4.24159 5.35002
0.767675 3.17216 16.1766
0.556741 1.30202 6.604
0.547024 1.57935 16.2029
1.10432 7.25132 14.4169
1.07124 1.69028 3.74448
0.482535 0.414083 6.35777
0.408426 2.81435 8.71485
0.788475 1.10722 10.1761
1.38784 3.36833 7.49638
0.830554 1.62743 5.99444
0.255217 1.07959 7.33817
1.09748 2.67986 8.94396
1.08969 2.56077 14.0932
0.683645 0.659122 20.2567
1.10059 9.23387 11.8202
1.42636 3.35571 13.6312
1.61045 1.11486 11.6415
1.59182 2.91317 9.36989
0.711324 5.50074 16.1913
0.484554 1.72336 11.6299
1.14219 7.15329 19.0895
1.34921 2.68862 22.2897
1.59415 4.30737 14.3302
1.0807 2.44692 10.0516
1.05787 1.69034 4.25576
0.485234 2.7777 16.9114
1.34339 3.8061 22.5401
2.04715 5.91645 12.7628
0.466528 2.59861 6.51878
0.395731 0.853069 20.0404
0.975009 2.37475 8.44067
0.812187 2.54609 2.60613
0.184282 1.72753 5.49913
0.753755 1.7838 17.7046
1.69305 13.5889 25.3931
2.06808 2.65209 15.0982
0.826653 1.7952 12.9888
0.545842 3.53236 8.34656
1.0074 2.41234 29.8701
2.08514 5.83486 9.17619
1.04894 2.39883 25.3222
1.68593 5.04249 4.42874
0.367535 1.58948 7.02362
1.35813 4.10789 18.4669
1.37742 3.6441 6.29413
0.457961 4.78708 24.4054
1.68476 2.53138 6.85235
0.805254 3.17243 30.0227
2.51187 7.16397 12.1686
0.524676 1.6119 4.67941
0.684133 3.7988 23.1465
1.16765 2.53316 5.94702
0.336357 1.81375 8.97993
1.14322 4.0116 22.9404
1.40294 4.08455 7.26496
1.08653 1.6555 8.785
0.970615 2.65878 13.0258
1.06672 4.33271 8.88141
0.633778 1.81142 10.1689
1.3079 2.64125 14.5963
1.05805 0.979958 6.4187
1.09628 2.60817 20.9812
1.26672 6.94056 10.6011
0.428967 2.76066 23.3934
1.65126 7.13546 24.6631
1.8499 2.10059 0.753453
0.283989 1.29143 4.86766
0.191583 2.18116 23.4741
1.4235 7.55173 6.61518
0.630869 1.0542 7.44168
0.738163 2.8627 22.4905
2.07225 3.6699 11.1954
1.32428 2.11038 4.22503
0.314655 1.68274 8.64844
0.797716 1.15753 11.7777
0.598075 5.66113 29.8583
2.40099 4.24836 9.97887
1.1817 5.58647 13.3875
1.43984 1.6992 8.16035
0.323308 1.23602 0.653994
0.304074 0.61643 4.46716
0.548921 2.45951 9.87672
0.83198 1.50501 13.406
0.674896 4.27162 6.28714
0.596588 1.85202 6.86374
0.26279 0.23362 6.48293
0.149966 3.46626 29.1668
2.38619 6.00624 18.0719
0.682279 5.08202 11.0515
1.24634 7.89248 39.7494
2.9962 2.07708 5.48536
0.412291 4.56141 6.3508
0.856264 1.15287 15.8472
1.28868 4.45333 24.1003
2.09621 3.0989 16.4068
1.32195 3.83685 8.70744
1.1663 2.06019 11.6626
1.14073 3.87031 18.6228
1.08216 0 0