# pn-170911/RbIIA-25-USN3-1280-1959.psd
# Power spectrum* (dif=0,1,2) (really just |FT|^2)
# NOTE: only the first half! (symmetric)
# weeks: 1280-1959
# 969 clock-days, 361 excluded
# PSD: 1441
15102.7 0.351622 0.00527242
569346 14.6482 0.00311327
1.43261e+06 23.3211 0.00337515
358627 11.7711 0.00337395
217678 10.6323 0.00365995
99542.1 6.50192 0.00363118
70349.4 6.25389 0.00409911
51139.4 5.63305 0.00424727
36385.5 4.87675 0.00450755
28695.5 5.25748 0.00514439
21844.9 5.19849 0.00555111
17952.3 4.43141 0.00544169
15540.9 4.65671 0.00579171
13014.7 4.38638 0.00672698
10815.1 4.49425 0.00724844
9922.71 4.21517 0.00721679
7791.55 4.33851 0.00839775
7177.6 3.72781 0.00830451
6165.75 4.11383 0.00950614
5708.92 4.39663 0.0102399
5227.65 4.14287 0.0109521
4724.59 4.17633 0.0112808
4370.28 4.0783 0.0117481
3845 4.09539 0.0132709
3461.2 3.93032 0.0133996
3357.64 3.8293 0.0138612
2923.81 3.66994 0.0144043
2917.16 3.97268 0.0164022
2604.37 3.84614 0.0176175
2340.62 3.7934 0.0175541
2199.42 3.62453 0.0187771
2216.9 3.88119 0.0210869
1979.07 3.71377 0.0218948
1822.86 3.74289 0.0219589
1742.2 3.67696 0.0233565
1692.73 4.03013 0.0268344
1561.4 3.74676 0.0260782
1523.27 3.73885 0.0262779
1384.46 3.83991 0.0294539
1318.8 3.75602 0.0313565
1297.65 4.1197 0.0335222
1186.62 3.64866 0.0327463
1220.05 4.15363 0.0389231
1002.39 3.38016 0.033541
1050.82 3.7852 0.0381363
1002.13 3.70814 0.0390726
942.839 4.07771 0.045416
960.988 3.91015 0.0426179
817.694 3.32743 0.0404475
848.621 4.10965 0.049847
819.61 3.83382 0.0494048
773.893 3.98445 0.0520331
721.849 3.70445 0.0508011
740.579 4.36958 0.0624817
684.363 3.64259 0.0533824
680.129 3.7403 0.0583642
612.547 3.90556 0.0638328
646.973 3.98962 0.0653512
601.581 4.09714 0.0686143
555.479 3.6939 0.0644359
595.667 4.03519 0.074994
519.331 3.6085 0.0660065
519.092 3.83288 0.0743603
503.154 3.83025 0.0773223
535.044 4.03745 0.0794677
475.328 3.77876 0.0797053
463.03 3.8058 0.0839856
462.98 3.91625 0.0882475
410.086 3.56434 0.0796329
439.658 4.0057 0.0969759
436.099 3.63873 0.0915782
390.182 3.65302 0.0888783
376.689 3.48399 0.0884296
406.018 4.07225 0.107691
391.808 4.12758 0.113792
331.803 3.61193 0.0996594
355.921 3.70489 0.106978
359.116 3.90314 0.114773
316.769 3.47762 0.103083
338.28 3.8697 0.119683
298.473 3.41134 0.106672
304.219 3.77918 0.124564
299.743 3.70859 0.119408
288.458 3.57206 0.122717
269.684 3.45339 0.119925
272.056 3.71995 0.130536
284.259 3.83286 0.13988
246.33 3.27277 0.119966
242.295 3.62246 0.137181
245.29 3.29983 0.126159
241.621 3.64266 0.145225
229.228 3.25158 0.130331
234.277 3.66691 0.151444
224.941 3.67299 0.157543
211.598 3.39821 0.144425
206.445 3.47359 0.152586
209.383 3.35699 0.150261
211.513 3.93365 0.183071
188.217 3.09861 0.144044
198.424 3.56297 0.167496
188.98 3.43183 0.16811
188.389 3.53745 0.173449
186.297 3.45728 0.174482
176.943 3.27863 0.167076
184.563 3.70093 0.194094
183.462 3.49449 0.184023
180.307 3.55724 0.188786
165.056 3.32502 0.185554
176.839 3.52524 0.197371
163.223 3.37336 0.191899
163.902 3.35139 0.192488
166.964 3.55232 0.211025
154.119 3.34595 0.201034
148.664 3.37596 0.20617
143.401 3.19874 0.199493
153.71 3.77401 0.238763
143.129 3.32638 0.213202
134.551 3.1584 0.20778
138.071 3.58632 0.240735
138.873 3.39094 0.230584
138.59 3.26947 0.227241
129.187 3.49608 0.250059
132.491 3.55849 0.250001
129.517 3.54999 0.259079
128.156 3.26444 0.240586
117.48 3.27985 0.247234
123.006 3.32058 0.252092
117.165 3.27618 0.252164
122.326 3.43578 0.272451
117.909 3.57941 0.281791
113.729 3.46121 0.278333
109.323 3.02866 0.250024
114.077 3.50761 0.294349
111.215 3.34918 0.284384
103.969 3.27364 0.280768
104.606 3.38457 0.294673
102.022 3.1021 0.27495
102.853 3.44321 0.309707
101.613 3.19944 0.289417
99.5351 3.33254 0.311181
96.8711 3.27286 0.303761
95.8269 3.34752 0.317498
97.3625 3.4654 0.331243
95.7035 3.44376 0.332278
94.4723 3.51134 0.349651
91.3894 3.28639 0.328736
92.5228 3.38099 0.346876
93.8031 3.30792 0.338823
90.5465 3.50732 0.367694
87.5977 3.37038 0.351831
82.8056 3.31302 0.354422
82.9844 3.31625 0.364773
86.2206 3.41355 0.376152
83.7387 3.32805 0.373582
85.4249 3.66451 0.411578
83.0013 3.36886 0.385461
81.2813 3.45256 0.396721
76.8014 3.45079 0.403051
81.7621 3.4774 0.412929
79.3068 3.5974 0.436806
77.0302 3.36789 0.40722
73.5042 3.29035 0.40485
71.6599 3.33956 0.420285
71.5887 3.25972 0.411848
70.5121 3.30208 0.425088
64.948 3.00615 0.388292
72.7197 3.45741 0.450317
63.8259 3.14487 0.424964
68.3621 3.21521 0.430018
68.8614 3.42929 0.461403
65.6475 3.40075 0.467505
64.9653 3.33799 0.46076
65.7195 3.53434 0.495495
64.8559 3.37068 0.480963
64.962 3.63234 0.521222
64.2252 3.47527 0.506555
63.3436 3.55242 0.521306
62.5273 3.46049 0.514326
58.8174 3.23686 0.48791
59.4063 3.24563 0.489222
62.6502 3.40973 0.526246
59.8464 3.43046 0.529179
62.0617 3.45984 0.542257
56.4138 3.23915 0.510474
55.964 3.36929 0.54275
57.7678 3.40843 0.550344
57.3343 3.35456 0.54621
58.0751 3.50127 0.582687
55.5779 3.28185 0.547642
53.0948 3.08309 0.527415
54.8164 3.53766 0.602888
56.1303 3.48323 0.597553
52.3916 3.62965 0.634635
52.7396 3.39569 0.586801
51.1148 3.19485 0.570764
53.6525 3.55651 0.644787
52.3145 3.36693 0.602361
50.8633 3.30856 0.60208
48.2567 3.33972 0.616805
50.6407 3.38149 0.638647
49.0699 3.29212 0.613137
47.335 3.30205 0.628301
46.7215 3.31307 0.638128
47.842 3.50791 0.668111
46.5748 3.37096 0.662263
44.4087 3.13423 0.630734
45.9353 3.2957 0.660146
46.1454 3.4638 0.696541
44.8192 3.35126 0.682294
46.5523 3.57081 0.729873
44.3617 3.32156 0.675857
45.0141 3.26969 0.684384
44.9921 3.42527 0.725534
43.9176 3.44169 0.731872
43.7868 3.50333 0.76397
43.2872 3.28256 0.709279
43.015 3.43133 0.741046
42.7582 3.39598 0.753319
42.4796 3.41368 0.758286
42.2799 3.50628 0.789132
40.2988 3.38499 0.77206
40.0252 3.36451 0.772614
40.8688 3.17333 0.728466
40.1554 3.60181 0.839692
39.3529 3.53815 0.823744
39.4131 3.49512 0.828057
38.7085 3.44778 0.832548
37.1784 3.33473 0.79697
37.3617 3.34465 0.808636
38.2943 3.4108 0.844227
37.9842 3.47305 0.847073
37.8706 3.6503 0.90678
36.5339 3.48536 0.881437
36.1784 3.49002 0.884083
37.8717 3.3479 0.868116
34.1535 3.20406 0.808061
35.2836 3.48243 0.909706
34.7662 3.47669 0.906228
35.0039 3.48151 0.921301
36.1842 3.48422 0.922565
34.086 3.74554 1.00588
32.8196 3.34003 0.890563
32.7514 3.17922 0.867808
34.1412 3.4933 0.955547
32.6469 3.33507 0.936153
31.6272 3.34479 0.936839
32.2421 3.38567 0.935044
32.9351 3.54792 1.00914
31.3022 3.3701 0.970249
31.3968 3.43398 0.992036
32.0625 3.40753 0.993077
32.6661 3.63432 1.06297
32.2644 3.61635 1.0619
31.6974 3.56813 1.05871
30.7617 3.62148 1.08719
29.6039 3.42081 1.04544
30.1577 3.39429 1.02829
28.2799 3.32446 1.0297
30.2676 3.58913 1.10753
28.7082 3.39753 1.05515
30.2307 3.4065 1.08236
30.1942 3.28765 1.04791
28.2132 3.53174 1.11649
29.6517 3.43118 1.07797
29.5757 3.43214 1.08679
27.3986 3.21477 1.06725
27.9105 3.41451 1.11371
28.4531 3.50213 1.16511
27.397 3.35072 1.13106
28.7024 3.36848 1.11262
27.8637 3.51655 1.19273
27.0342 3.27298 1.10749
26.3805 3.05462 1.05088
26.1768 3.25466 1.11333
25.3914 3.43723 1.20984
26.5383 3.59036 1.25893
26.0546 3.57484 1.26086
27.0235 3.73073 1.31316
25.5432 3.68532 1.30723
25.8774 3.63025 1.3185
25.3697 3.46116 1.24466
26.6959 3.721 1.38081
24.7309 3.58633 1.30974
26.0941 3.41192 1.26183
25.354 3.59783 1.34081
25.5129 3.5725 1.34256
24.9313 3.63715 1.40186
24.8195 3.5809 1.36355
24.8772 3.56406 1.36213
24.0473 3.54975 1.37178
24.1164 3.62472 1.39437
23.2494 3.46654 1.35154
23.487 3.61607 1.4365
24.0464 3.3405 1.33919
24.323 3.71739 1.47945
24.0422 3.62914 1.44526
22.5099 3.52362 1.43006
22.9605 3.55572 1.44928
23.4119 3.48408 1.42179
21.9759 3.32357 1.37083
23.5637 3.5138 1.39922
22.4542 3.34443 1.4057
22.9407 3.37819 1.43522
22.015 3.62509 1.50504
22.0575 3.53139 1.50911
22.1376 3.46697 1.48266
21.0288 3.37804 1.47206
20.5831 3.20526 1.39863
22.2326 3.62005 1.5876
21.3065 3.64395 1.5989
21.2432 3.42875 1.50232
20.2366 3.33562 1.50677
20.2241 3.34693 1.49589
21.1465 3.66849 1.61823
20.8905 3.68333 1.65723
20.9954 3.52325 1.58876
21.4399 3.47865 1.60971
20.8485 3.36303 1.55307
19.8824 3.49262 1.62089
19.8206 3.38852 1.54549
20.6531 3.70852 1.70117
20.0834 3.64726 1.75147
18.208 3.35386 1.59637
20.245 3.56279 1.71184
19.5175 3.46608 1.63335
19.506 3.60326 1.73995
19.2406 3.41506 1.67086
18.4755 3.41148 1.67148
18.6329 3.33892 1.62835
18.601 3.39794 1.67533
19.1553 3.57255 1.77851
19.4803 3.55459 1.80041
18.6474 3.42819 1.75972
18.5394 3.41165 1.68329
17.94 3.63059 1.87085
18.9005 3.58937 1.84554
17.601 3.32524 1.73494
17.8835 3.43503 1.76227
17.7223 3.55983 1.85531
17.828 3.33341 1.7886
18.489 3.679 1.91929
17.4761 3.2178 1.6908
17.8396 3.59211 1.89375
17.8749 3.46643 1.84876
17.7061 3.69278 1.95423
17.7538 3.57177 1.91577
16.9519 3.38395 1.80806
17.7018 3.51902 1.9028
17.446 3.64249 1.9978
16.6788 3.64024 2.04956
17.3264 3.47728 1.92407
16.9011 3.393 1.88487
17.3984 3.69696 2.05415
17.7491 3.92727 2.19563
15.0742 3.34918 1.94166
16.4252 3.47055 2.0259
16.7726 3.46325 1.98385
17.0416 3.59008 2.08093
16.6594 3.57773 2.03151
15.926 3.54828 2.10908
15.7897 3.68943 2.15858
16.1102 3.56133 2.08832
15.9766 3.43889 2.05334
15.9414 3.61489 2.16136
15.8215 3.57879 2.16008
15.3144 3.54609 2.13492
16.0614 3.57985 2.14422
14.3385 3.52466 2.10118
15.2756 3.41688 2.07843
14.6539 3.39099 2.09344
15.1063 3.59446 2.22264
14.5249 3.35378 2.074
15.0006 3.62215 2.25462
14.3974 3.63894 2.34507
14.5356 3.4685 2.20063
14.7217 3.63448 2.3063
14.4505 3.45436 2.22208
14.537 3.43735 2.15879
14.5418 3.62581 2.35776
14.5234 3.76881 2.40522
14.5359 3.58734 2.35087
14.1907 3.66986 2.38928
15.1203 3.67628 2.41326
14.4861 3.59239 2.33302
13.9502 3.63689 2.41405
13.8851 3.53399 2.35343
14.1924 3.59538 2.38829
14.3397 3.83801 2.58785
13.7608 3.60042 2.50443
13.7268 3.62195 2.41788
13.4595 3.49836 2.4286
13.5479 3.44352 2.34956
13.526 3.51382 2.444
13.0574 3.53813 2.43423
13.7359 3.65276 2.54523
13.3613 3.49175 2.41201
14.1414 3.50723 2.45564
13.2943 3.7262 2.66879
13.7931 3.72325 2.5747
13.0112 3.70854 2.67733
12.9368 3.71809 2.68466
13.3377 3.67823 2.64013
13.7174 3.65349 2.5813
12.9137 3.76988 2.74983
12.5233 3.65527 2.72609
13.5625 3.85846 2.73508
12.3591 3.57363 2.65278
13.3422 3.91835 2.89985
12.7185 3.67769 2.74761
12.6973 3.61006 2.6946
12.5996 3.45501 2.64412
12.5259 3.53605 2.61237
12.5465 3.61359 2.66232
12.2612 3.56654 2.70277
12.36 3.69164 2.79867
12.704 3.9063 2.96387
12.1195 3.7584 2.9298
12.2466 3.75166 2.91504
11.7679 3.40663 2.74802
12.1898 3.59295 2.69344
11.8689 3.50226 2.75575
11.991 3.5476 2.8054
12.1314 3.71315 2.90871
11.8456 3.76926 2.97833
11.4476 3.41978 2.80441
12.1853 3.80386 3.02123
11.7412 3.64852 2.98214
12.1778 3.74178 3.02725
11.6703 3.59244 2.86139
11.1931 3.5542 2.8944
11.9242 3.84252 3.03778
11.8147 3.84779 3.16407
11.3875 3.6614 3.01998
12.007 3.83752 3.19565
11.1503 3.75847 3.11563
11.2623 3.52726 2.9632
11.2802 3.76696 3.1146
11.1177 3.63291 3.07689
11.579 3.81648 3.26614
11.319 3.66266 3.16772
10.6877 3.65803 3.12436
10.9442 3.5854 3.10852
11.3443 3.5826 3.06685
11.2044 3.81921 3.29042
10.898 3.71887 3.28731
11.1401 3.76226 3.24517
10.4876 3.54133 3.11403
11.3682 3.73691 3.29249
10.672 3.83825 3.43454
11.1036 3.85397 3.37791
10.3721 3.77744 3.34669
10.3419 3.5547 3.18824
10.8964 3.69715 3.29936
10.5743 3.86719 3.5528
10.5746 3.77201 3.35773
10.3256 3.89404 3.51035
9.90262 3.48553 3.19203
10.691 3.77817 3.43506
10.1335 3.50779 3.27401
10.0783 3.57377 3.24038
10.412 3.62947 3.382
9.89497 3.63007 3.27202
9.99269 3.78966 3.56509
9.86347 3.48585 3.16742
9.36226 3.44245 3.31724
10.2298 3.68409 3.45404
9.49465 3.68515 3.55664
9.62541 3.62477 3.41588
9.61947 3.47362 3.33243
10.1934 3.8472 3.69655
10.0863 3.95545 3.75902
10.3701 3.73461 3.62519
10.1542 3.72268 3.61914
9.76335 3.70629 3.69638
9.78661 3.74992 3.56022
10.3119 3.78702 3.71544
10.0165 3.74738 3.64544
9.74847 3.77417 3.87369
9.91047 3.70762 3.62358
9.86406 3.89033 3.879
9.65789 3.62487 3.60835
9.29425 3.56591 3.63003
9.69647 3.94105 3.933
9.40521 3.7154 3.75372
9.78932 3.93067 4.00994
9.37063 3.73599 3.76092
8.95127 3.67934 3.893
9.58718 3.89581 3.89163
9.49421 3.83396 3.84644
8.78055 3.81033 4.04421
8.86922 3.75598 3.90745
9.13208 3.82051 3.99206
9.08594 3.79583 3.9397
8.76253 3.7896 3.94725
9.05018 3.8072 4.0653
8.63714 3.62679 3.94645
9.32283 3.88605 4.03026
8.8099 3.72954 3.95836
8.89255 4.01724 4.25443
8.80324 3.76231 4.01121
9.17268 4.0872 4.34513
9.00129 3.84717 4.29669
8.38964 3.65337 3.93968
8.61607 3.59683 3.97594
8.6899 3.66322 4.08435
8.95718 3.75548 4.05104
8.48723 3.73186 4.19306
8.36067 3.59533 3.93999
8.61567 3.77721 4.09307
8.41472 3.78979 4.28894
8.66051 3.7055 4.14759
8.53843 3.68019 4.15614
8.4618 3.93302 4.32411
8.29031 3.77839 4.3245
8.59773 3.96128 4.42753
8.52384 3.77459 4.36995
8.20306 3.73573 4.31405
8.7044 3.98673 4.56195
8.27678 3.63163 4.08728
8.43519 3.88577 4.53273
8.42472 4.08172 4.56012
8.34048 3.62896 4.21388
8.44154 4.20515 4.95246
8.51261 3.94383 4.58373
8.11936 3.66317 4.21427
7.54833 3.90484 4.64855
8.21585 3.75392 4.36124
8.1909 3.82761 4.56353
8.25625 3.80707 4.57997
8.33931 3.77576 4.52593
8.26416 3.94002 4.66019
8.14118 3.63329 4.36856
8.32723 3.91588 4.6555
7.79095 3.73482 4.45934
7.67449 3.90898 4.74838
7.97187 3.87401 4.73923
7.7209 3.69834 4.58222
7.78217 3.96366 4.70012
7.90094 3.94107 4.87228
7.54681 3.74884 4.8818
7.77271 3.91265 4.87333
8.10529 4.17789 5.21103
8.07213 4.03339 4.93097
7.73052 3.9045 4.89619
7.57194 4.03968 5.03079
8.13372 4.04029 4.93943
7.80478 3.9913 4.99911
7.46845 3.88872 5.02346
7.47185 3.69921 4.61869
7.77117 3.97313 5.15746
7.22356 3.86598 4.91402
7.49152 4.1101 5.32361
7.17519 3.76687 4.81109
7.31808 3.84188 5.06164
7.59502 4.02847 5.13231
7.18547 4.07905 5.52789
7.71688 4.1025 5.19828
7.54899 3.77474 5.03011
7.6095 4.10881 5.18481
7.38095 3.90994 5.21606
7.51425 3.91096 5.1388
7.4803 3.94546 5.12186
7.34497 4.08572 5.29085
7.28201 4.16655 5.67811
7.60592 3.99097 5.19409
7.29143 3.87506 5.10287
7.29049 3.80081 5.25873
7.49856 3.99381 5.35246
7.12295 3.90167 5.29921
7.4187 4.08995 5.61432
7.46143 4.07345 5.45972
7.29509 4.26944 5.76237
7.44964 4.25197 5.75155
7.48838 4.27918 5.90449
7.28841 4.32042 6.04218
7.39466 4.18276 5.49446
7.34463 4.08671 5.71356
6.90146 4.15673 5.73835
7.48843 4.12273 5.88315
7.30179 4.19948 5.84444
6.85597 3.89464 5.57043
7.11219 4.36407 6.00562
6.78138 4.09502 5.7807
7.07207 3.91938 5.71052
7.10819 4.1519 5.63384
7.12398 4.11824 5.89401
6.96032 3.98272 5.67386
6.83626 3.87901 5.58559
6.8813 4.05322 5.80803
6.71729 3.93257 5.71833
6.67938 3.97956 5.73465
6.86843 3.95082 5.49232
6.57035 3.96944 5.81376
6.57562 3.85345 5.62946
6.57079 4.05221 5.82211
6.82879 3.94422 5.86221
6.73758 3.97816 5.71674
6.36028 3.70801 5.54315
6.90836 4.1482 6.09555
6.60191 4.13611 5.95933
6.19136 4.08593 6.24918
6.64993 4.19683 6.31784
6.54144 3.8778 5.87407
6.66427 4.11825 5.96975
6.79517 4.00568 5.96966
6.3466 4.1608 6.34378
6.58262 3.95535 5.8967
6.25511 3.82805 5.9065
6.48241 4.33512 6.56146
6.53041 3.87583 5.8527
6.42911 4.08928 6.33429
6.39861 3.92435 6.04835
6.37978 3.61062 5.58686
6.36282 4.27838 6.65018
6.37845 3.96437 6.07716
6.11255 3.96967 6.21355
6.4749 4.16962 6.30139
6.4647 4.14767 6.52573
6.26793 3.98669 6.19745
6.36544 4.2704 6.7703
6.45754 3.91294 6.01449
6.0263 4.17138 6.49884
6.42376 4.08677 6.49846
6.43846 3.97105 6.31491
6.35219 4.2262 6.53936
6.15332 3.88161 6.04118
6.31825 3.90468 6.25301
6.27562 4.06442 6.61005
6.09451 4.18787 6.69976
5.95795 3.68702 6.06268
6.1625 3.89306 6.29084
6.1994 4.06937 6.46323
6.07289 3.88044 6.32765
6.24531 4.25052 7.14313
6.14825 4.15668 6.43183
5.95178 3.94346 6.54326
6.00138 4.04739 6.66754
5.84474 4.07499 6.59985
6.04587 3.97496 6.49708
6.0508 3.94164 6.59572
5.84566 4.00419 6.50461
6.05946 4.0719 6.63317
6.11911 4.02017 6.88621
5.65658 4.02702 6.97203
6.18965 4.2714 7.17795
5.96296 3.99077 6.53747
6.0795 4.20764 7.13061
5.80133 4.04514 6.58406
6.03167 4.19685 7.33206
6.08065 3.85339 6.55342
5.80814 4.15283 6.96621
5.91479 4.03932 6.81957
6.01845 4.12215 7.11678
6.058 4.1608 7.06557
5.74755 4.00121 6.90429
5.66199 4.0407 6.69657
5.84507 4.13586 7.23531
5.67155 3.99665 6.91326
5.74897 4.20408 7.26464
5.8961 4.17383 7.32278
6.01201 4.18136 7.35563
5.91331 4.21684 7.30087
5.76529 3.97153 6.7753
5.60557 4.11701 7.19267
5.47173 3.94114 7.35633
6.02237 4.23369 7.27406
5.63291 4.22903 7.3594
5.59179 4.12805 7.57333
5.7929 4.30223 7.55137
5.44655 4.04964 7.21458
5.58169 3.90452 6.86628
5.38665 4.12897 7.67902
5.76975 4.23756 7.23628
5.21041 4.19678 7.56386
5.63543 4.27974 7.62646
5.71871 4.30753 7.78764
5.54814 4.06024 7.39274
5.44658 3.9597 7.16804
5.38968 4.2597 7.81445
5.2106 3.90738 7.10314
5.62623 4.41802 7.97915
5.45596 4.08061 7.47212
5.33639 4.2025 7.58741
5.38577 4.17508 7.98662
5.31088 4.1096 7.65252
5.66809 4.27504 7.66669
5.37158 3.94405 7.31919
5.33167 4.02817 7.39025
5.42938 4.21794 7.72786
5.38885 4.24453 8.15657
5.36346 4.23429 7.86115
5.49133 4.28698 7.81894
5.20438 3.99787 7.75788
5.46286 4.2353 7.74607
5.32714 4.40052 8.5008
5.54546 4.4031 8.21082
5.36212 4.37724 8.14816
5.19014 4.21111 8.28064
5.34182 4.28508 7.98316
5.13435 4.07173 7.90527
5.27484 4.22231 8.03198
5.14305 3.95064 7.72643
5.25996 4.48571 8.65073
5.08677 4.05368 7.62684
5.22794 4.06988 7.61857
5.20915 3.98923 7.94896
5.33287 4.41029 8.49851
5.22968 4.26922 8.14882
5.04166 4.10803 7.94496
4.85074 4.00688 7.98653
4.88985 4.25168 8.35731
4.99071 4.20175 8.53729
5.36821 4.35187 8.37586
5.33535 4.5886 9.20899
5.06013 4.09659 8.02511
5.17071 4.26092 8.20317
5.11327 4.1143 8.20565
5.0337 4.37156 8.63882
5.04058 4.24708 8.5155
5.01762 4.26993 8.52515
5.09883 4.0881 8.35459
5.21724 4.26308 8.42919
4.82512 4.01622 8.01608
4.93558 4.06658 7.80678
4.78664 3.93522 8.34709
5.04049 4.30101 8.67129
5.03444 4.52863 8.92217
4.84088 4.1861 8.69035
5.15533 4.36944 8.75018
4.90243 4.26422 8.97572
5.10871 4.17439 8.47703
4.9816 4.23452 8.55748
4.7866 3.94821 8.13201
4.82505 4.15615 8.712
4.81467 4.21815 8.55211
4.77182 4.18821 8.78415
4.92695 4.41807 9.13134
4.80168 4.06239 8.6244
4.95891 4.45331 9.13121
4.82666 4.16234 8.76285
4.87323 4.34954 8.87599
4.79377 4.40219 8.6941
4.77617 4.09443 8.60542
4.66853 4.0101 8.71359
4.84807 4.53488 9.73105
4.73589 4.2578 9.06763
4.7854 4.21329 9.23044
4.87416 4.2981 9.04533
4.83781 4.25051 8.75321
4.85531 4.42255 9.38947
4.8803 4.17685 8.93554
4.80784 4.47096 9.22546
4.82156 4.40752 9.24822
4.61002 4.12033 9.24364
4.7044 4.22579 8.93128
4.67344 4.19627 8.98263
4.72136 4.52532 9.79223
4.72141 4.31346 9.34822
4.45374 4.2043 9.29142
4.63359 4.13224 9.22083
4.64773 4.13114 9.11644
4.5544 4.41262 9.69839
4.72081 4.24262 9.07891
4.73874 4.3942 9.5205
4.48875 4.20008 9.41745
4.74513 4.50884 9.68201
4.57122 4.29764 9.58399
4.61415 4.32378 9.54009
4.64985 4.55257 10.3792
4.79896 4.48514 9.36995
4.38843 4.26173 9.79435
4.56391 4.2453 9.39265
4.73235 4.53354 9.97863
4.42592 4.19293 9.37595
4.54271 4.30077 9.63728
4.52043 4.44972 9.67679
4.56155 4.29372 10.0167
4.58114 4.50253 10.0528
4.59913 4.33919 9.85473
4.55808 4.19508 9.4362
4.56047 4.71492 10.5976
4.43756 4.16876 9.42805
4.62325 4.5977 10.2208
4.30409 4.52601 10.3431
4.58311 4.33018 9.79714
4.50744 4.52796 10.6872
4.68166 4.60482 10.7244
4.65994 4.26687 9.33213
4.34491 4.42123 9.85141
4.31029 4.40139 10.5281
4.52043 4.53664 10.5577
4.39336 4.30661 9.75129
4.28999 4.52187 10.6046
4.3949 4.48479 9.85909
4.15625 4.08202 9.96933
4.27991 4.46082 10.502
4.29307 4.10703 10.0098
4.28677 4.37443 9.71342
4.31269 4.21933 10.0993
4.60766 4.58711 10.1041
4.41311 4.48452 10.4645
4.2338 4.54874 10.256
4.12849 4.29969 10.4848
4.46715 4.57704 11.0303
4.33341 4.23491 9.96367
4.50975 4.84597 11.5323
4.19504 4.09601 9.59416
4.08237 4.58317 11.1999
4.44349 4.42997 10.4474
4.16424 4.42783 10.6033
4.22569 4.66233 10.8521
4.27899 4.378 10.5849
4.39047 4.70195 11.223
4.33866 4.51901 10.6528
4.21871 4.46512 11.1371
4.0489 4.39509 10.6574
4.14401 4.30879 10.6677
4.21147 4.60644 10.8489
4.23581 4.54563 10.5411
4.05534 4.23201 10.3737
4.24803 4.43748 10.7961
4.1474 4.32275 10.5293
4.14514 4.7199 11.045
4.20061 4.63206 11.6171
4.34534 4.32446 10.5566
4.28444 4.3046 10.4728
4.03829 4.25341 10.9188
4.14076 4.13508 10.6128
4.10873 4.70119 11.2615
4.27459 4.97175 11.7878
3.9654 4.39093 11.2625
4.15363 4.51544 11.1947
4.1551 4.39808 11.1361
4.16306 4.329 10.8929
4.19937 4.36972 11.2622
4.23445 4.75403 11.2294
4.01507 4.15831 11.1318
4.28427 4.53145 11.0391
3.99782 4.45297 11.5279
4.12862 4.8379 11.4484
4.00681 4.71684 11.942
4.13873 4.45654 11.5372
4.00388 4.2846 10.977
4.15653 4.70209 11.6873
3.9644 4.58047 11.5558
3.96243 4.55332 11.7299
4.1211 4.48301 11.3926
4.12176 4.41262 11.327
4.22144 4.87507 12.0912
3.98153 4.67848 11.5453
3.98713 4.79637 12.4905
3.92841 4.39107 11.7463
3.92499 4.69843 11.8876
4.04175 4.77158 12.0485
3.93361 4.53659 11.6433
4.09955 4.64847 12.4636
4.10236 4.5662 12.0629
4.1128 4.86552 12.1932
4.05493 4.88063 12.4242
3.9921 4.43452 11.8762
4.07161 5.09562 12.9764
3.89002 4.57576 12.1138
4.18893 5.30807 13.391
4.12012 4.95985 12.6204
3.82266 5.2103 14.3426
4.19784 5.20835 13.3581
4.10535 4.94468 12.8654
3.92301 4.91922 12.7087
3.78757 4.67484 12.7255
3.92704 4.51722 12.1048
4.06169 4.68266 12.1198
4.00796 4.83211 12.7178
3.82515 4.57391 12.8651
4.00337 4.73537 12.0323
3.86483 4.46191 12.2108
3.84096 4.44929 11.6277
3.65483 4.46023 11.9212
3.82403 4.53447 12.597
4.1196 4.7893 12.599
3.9006 4.52748 12.6423
4.06981 4.90687 12.7523
3.99261 4.89934 12.4968
3.91736 4.43374 12.2519
3.82143 4.53134 12.044
3.71527 4.49928 12.441
3.8906 4.50344 12.3188
3.76026 4.41181 11.8777
3.77012 4.60469 12.628
3.63458 4.37295 12.0373
3.85418 4.63844 12.4088
3.76938 4.61285 12.8265
3.82281 4.57523 12.1705
3.7416 4.80014 12.8238
3.76696 4.60803 12.7882
3.74185 4.67362 12.7608
3.7313 4.42079 11.8566
3.68563 4.55612 12.9153
3.71596 4.7 12.2056
3.75624 4.5913 13.1316
3.7487 4.81374 13.3101
3.67629 4.43091 12.4329
3.7378 4.80383 13.5295
3.84692 4.70254 12.0489
3.43812 4.27542 11.9772
3.73596 4.57421 13.0138
3.78319 4.50061 12.3854
3.83338 4.75009 12.9348
3.62326 4.58013 13.4896
3.90049 4.65841 13.2526
3.79352 4.73064 13.3891
3.67945 4.44357 12.5069
3.71619 4.83012 13.1795
3.84277 4.75423 13.3965
3.60758 4.78792 13.3016
3.58312 4.74941 13.8393
3.83065 4.75208 13.4729
3.66368 4.74419 13.9082
3.83701 4.6846 12.7291
3.81238 4.74855 13.1263
3.71267 4.79403 13.8432
3.61814 4.51199 12.5718
3.63677 4.59042 13.1533
3.74447 4.43555 12.4839
3.43675 4.75284 13.4018
3.63869 4.86066 14.1285
3.6031 4.48643 13.4626
3.72671 4.9235 14.2762
3.59523 4.16133 12.5909
3.72109 4.7895 13.6174
3.58866 4.70113 13.529
3.68558 4.85919 13.9127
3.58518 4.6637 12.5232
3.4738 4.32494 12.9997
3.55484 4.24267 12.2348
3.58259 4.34546 12.1586
3.48307 4.47023 13.9465
3.67135 4.54598 12.8937
3.55938 4.579 13.8647
3.54673 4.3463 12.498
3.56463 4.7237 13.9473
3.6333 4.60471 13.0369
3.65422 4.57942 13.3429
3.58406 4.77165 13.5943
3.65062 4.96808 14.1254
3.49393 4.44727 13.9423
3.58843 4.98619 14.129
3.57978 4.75163 14.4685
3.5515 4.80779 13.4492
3.61159 4.67346 13.7632
3.48544 4.77439 14.4892
3.65208 4.66122 12.9477
3.31473 4.46488 13.6792
3.56832 4.51325 13.2702
3.54199 4.34461 13.6626
3.40973 4.50393 13.2228
3.48425 4.4525 13.3919
3.33189 4.61434 13.6403
3.36966 4.52422 13.807
3.51936 4.83755 14.6365
3.45388 4.8013 13.7942
3.36499 4.6424 13.8899
3.5521 4.5613 13.365
3.30206 4.5084 13.873
3.40675 4.57549 13.3123
3.33165 4.62932 13.8244
3.50243 4.39533 13.654
3.3458 4.93293 15.3144
3.50712 4.68744 13.5207
3.29118 4.60152 14.0084
3.32517 4.78472 14.4413
3.55791 4.73981 14.463
3.5507 4.66576 14.8047
3.49625 4.91978 15.1919
3.53969 4.96269 15.1524
3.50388 4.4919 14.1141
3.47305 4.99831 14.5987
3.37432 4.35445 13.7806
3.56742 4.87125 14.8313
3.46795 5.07541 15.243
3.34908 4.47002 14.5769
3.34586 4.77751 13.9168
3.39241 5.01284 14.9469
3.43681 4.77337 14.6783
3.3289 4.34841 14.0412
3.43276 4.7461 14.2782
3.29437 4.3257 14.2386
3.45812 4.85969 14.7064
3.36736 4.45673 14.578
3.46663 4.78853 14.5953
3.54566 4.82837 14.6961
3.49716 4.88788 14.8902
3.42692 4.69271 14.4299
3.33408 4.35258 13.8285
3.32427 4.65956 14.3891
3.33116 4.74395 15.4625
3.50573 5.01887 14.8268
3.37012 4.55381 14.5785
3.2996 4.6581 15.0426
3.40165 4.92094 15.6451
3.44798 4.88811 16.0363
3.50099 4.6061 14.4093
3.47678 4.98668 15.0539
3.30701 4.62461 14.4857
3.21944 4.55939 14.32
3.18095 4.8589 15.9612
3.54624 4.77222 15.2576
3.51126 5.0059 15.1864
3.31072 4.64998 15.8329
3.50241 4.7603 14.5022
3.31865 4.57179 14.8059
3.487 4.96551 15.7647
3.49495 4.89258 15.3566
3.4052 4.80562 15.0296
3.36061 4.9102 15.6888
3.3144 4.79005 15.1865
3.2766 5.17286 16.2823
3.36365 4.81803 15.5865
3.31067 4.81085 15.4591
3.36164 4.74356 15.5038
3.23596 4.7073 14.9293
3.21159 4.7048 15.5125
3.31358 4.79981 15.4205
3.3858 4.76089 15.8945
3.36783 5.06758 16.0123
3.39642 5.00433 16.1882
3.27361 4.42062 14.2347
3.18068 4.79163 14.7987
3.26199 4.87544 15.9759
3.31019 4.66649 15.4655
3.33165 4.90665 15.3397
3.24275 4.76 15.94
3.24748 4.87888 16.0762
3.32354 4.95588 15.9029
3.38905 4.97096 16.3921
3.32181 4.52779 14.8558
3.21273 4.83128 15.7057
3.25012 4.65863 15.5733
3.15579 4.69546 15.3651
3.21465 4.8342 15.5269
3.16765 4.60846 15.9376
3.35589 4.85351 15.5119
3.19428 4.60869 15.3325
3.28367 5.00641 15.6248
3.22482 4.85289 16.5766
3.2535 4.90294 16.2879
3.08399 4.46259 14.9046
3.12883 4.62373 15.2163
3.20741 4.7994 15.9227
3.36752 5.07837 16.2811
3.18867 4.76391 15.7818
3.01977 4.6753 15.5745
3.33912 4.75499 16.3601
3.35091 5.17122 16.0741
3.19283 4.90839 16.438
3.27895 4.65764 15.3255
3.1358 4.67725 16.4531
3.28103 4.99388 16.4772
3.25287 4.89156 16.4345
3.32212 5.22024 17.3979
3.37453 5.13487 17.0865
3.30729 4.78641 16.5823
3.23797 5.09914 16.3788
3.17358 4.72566 16.8991
3.19854 4.77221 15.2538
3.1522 4.63921 15.309
3.04085 4.90823 16.8991
3.20592 4.86902 15.9823
3.13753 4.69959 15.3236
2.99884 4.79094 16.3017
3.1975 4.88024 15.9731
3.04783 4.88502 17.0434
3.0946 4.76275 16.1892
3.16704 4.93697 16.6523
3.13024 4.81174 16.9176
3.06767 4.64353 15.5408
3.05269 4.9722 17.1768
3.13654 4.83318 16.8542
3.14697 4.70336 15.6813
3.07453 5.19187 17.3324
3.21274 4.75989 17.2821
3.24926 4.97811 16.5308
3.17193 4.87764 15.7178
2.9522 4.38008 16.0501
3.18662 4.83425 15.6555
3.02513 4.83807 17.8103
3.21229 4.47372 15.5274
3.10233 5.03436 16.5452
3.149 5.13722 17.2453
3.13756 4.67158 16.5217
3.10237 5.15214 16.7085
3.14081 4.60997 16.3679
3.10915 4.80074 16.7736
3.13798 4.99046 16.9041
3.0089 4.99952 16.9223
3.10011 4.88737 17.1497
3.1174 4.82688 17.4486
3.13217 4.93836 17.375
3.21931 4.93833 16.7007
3.10242 4.9461 16.3603
2.96813 4.91848 17.5032
3.03467 4.68929 16.9797
3.10165 4.98533 17.7723
3.14425 5.0333 17.2517
3.05266 4.71471 17.1402
3.22092 4.92124 16.5459
3.07251 4.67864 16.052
3.07516 5.11072 17.586
3.20708 4.66489 16.347
3.13271 5.1268 17.2847
3.13176 4.77202 17.1326
3.07731 4.83632 17.1535
3.03708 4.91035 17.2138
3.1078 4.97448 17.9972
3.0999 5.3134 17.2255
3.07424 4.98447 17.4211
3.12935 5.04626 17.6069
2.99146 4.84372 17.6398
3.068 4.78503 16.4493
2.94669 4.91222 16.9644
2.921 4.61898 16.8486
3.12094 4.89558 17.302
2.88384 4.85234 16.9337
3.05114 5.3123 17.7221
2.9849 5.00153 17.9223
3.07612 4.89566 18.5946
3.01062 4.55982 16.286
2.90805 4.85659 16.5816
3.07209 4.96023 17.3688
2.95424 4.92573 19.1154
3.27602 4.90184 16.8902
2.95032 4.74282 16.8227
2.91716 4.7204 18.1409
3.0745 5.11855 17.7252
3.10067 5.18308 17.6293
2.98224 4.9164 17.5911
2.99114 4.90514 17.5493
3.03135 4.9646 18.0262
3.04737 5.00906 18.0247
2.97414 5.21462 18.6687
3.05492 4.94887 17.6164
2.96965 4.81792 16.8934
3.03186 5.06927 18.8844
3.10062 5.10928 17.9028
3.07739 5.11138 19.1539
3.13134 5.28134 18.4543
3.04518 5.28243 19.0173
3.05543 5.19411 18.8358
3.04518 5.33598 19.378
3.17791 5.50898 19.3014
3.1161 5.30481 19.7835
3.28606 5.69129 21.5057
3.27399 5.81787 18.764
3.03209 5.63786 21.7496
3.16877 5.77966 21.1085
3.0692 5.4386 20.1263
3.07229 5.40427 19.2394
3.08881 5.57273 20.0569
3.07756 5.3758 18.9698
3.0416 5.05742 18.9485
3.10563 5.38639 19.1456
3.04731 4.82765 18.1507
2.88332 5.4367 19.2251
2.93884 5.19918 19.0894
3.15287 5.53359 18.7005
2.85106 4.80556 17.6432
2.83669 4.94616 18.2183
2.91764 4.73668 17.5189
2.89947 4.99151 18.6498
3.00014 5.3013 19.0906
2.92713 5.01845 18.0555
2.81781 5.12829 17.9627
2.89075 5.33909 20.2214
3.01231 5.3144 19.4889
2.89044 4.8342 18.2218
2.90468 5.21061 18.3507
2.8957 5.15169 19.5615
2.88763 5.10307 18.6543
2.86161 5.41834 19.8053
2.95538 4.93201 19.1673
2.88871 5.27754 18.0842
2.87371 4.58793 18.6424
2.91444 5.08548 18.0267
3.001 5.222 18.7183
3.02504 5.02932 18.6705
2.80734 4.83318 17.5119
2.8122 4.84801 19.4279
2.93182 5.51862 20.7648
3.02215 5.31003 17.943
2.9397 5.42351 19.2376
2.93479 4.96551 18.6995
2.82304 5.07709 18.8516
2.91433 5.20118 19.0417
2.97246 4.97396 18.3672
2.91965 5.1764 19.5447
2.8819 4.95721 17.8804
2.86745 4.8323 18.579
2.99338 4.99968 18.635
2.92137 4.73132 18.879
2.98519 5.25572 20.0938
2.88391 5.38313 19.3189
2.80521 5.04536 20.4157
2.97321 5.19464 19.1142
2.93389 5.23811 18.4703
2.91425 5.10953 19.1737
2.88929 4.96168 18.6734
2.90251 5.09981 18.4412
2.76097 4.8743 19.1914
2.9435 4.98498 18.2354
2.76939 4.71629 18.4587
2.85051 4.94475 18.6479
2.82187 5.35982 18.3751
2.78137 4.86566 19.1698
2.82841 5.08541 19.1771
2.91258 4.84757 17.3875
2.62809 4.63353 18.7181
2.94655 4.99049 18.5765
2.86023 4.90815 18.934
2.84568 4.93142 18.2417
2.73546 4.70853 18.1983
2.78361 4.8475 18.428
2.79987 5.05306 19.0156
2.76296 4.81532 17.2559
2.77842 4.99847 19.4554
2.95626 5.11694 18.0694
2.83081 5.02582 19.0445
2.87655 4.86807 18.6792
2.79155 4.80107 17.7243
2.85834 4.77128 18.5558
2.8238 4.96818 18.411
2.78052 4.85283 18.4721
2.82595 5.13431 20.6777
2.92523 5.08448 19.3619
2.89224 4.71851 17.9596
2.89311 5.1437 18.828
2.83848 5.05378 18.757
2.80173 4.96608 19.6442
2.92334 4.99415 18.6846
2.79181 4.87538 19.1566
2.8519 5.11554 19.3569
2.89438 5.16637 20.2777
2.98199 5.19711 19.0663
2.87956 5.20748 18.938
2.76242 5.07578 19.0876
2.83259 5.29585 19.941
2.86155 5.04603 19.9076
2.88003 4.9505 20.5217
2.88057 5.25798 20.8134
2.94731 5.19192 18.04
2.80995 5.02008 19.1856
2.72334 4.71915 18.1255
2.78284 5.16322 19.6661
2.78797 5.0808 19.332
2.8262 5.05961 20.4835
2.83166 5.31944 20.2138
2.83488 5.3001 19.0703
2.75814 5.04105 19.6724
3.00223 4.96966 20.098
2.8796 5.28524 20.4698
2.9433 5.2176 19.2188
2.72018 4.9072 18.1677
2.65744 5.00961 18.8739
2.74339 5.0791 18.2936
2.70764 4.68987 18.7701
2.74549 4.87671 18.9288
2.79649 5.41945 21.2653
2.90721 4.9908 20.0087
2.84358 4.75261 19.2517
2.83853 5.0535 18.9415
2.69237 5.11602 18.5892
2.74961 4.76189 19.0741
2.81652 5.30934 19.5047
2.7048 4.9103 19.8199
2.78041 4.84827 18.4963
2.62009 5.00137 19.8248
2.87384 4.83138 19.3646
2.8818 5.39767 19.7628
2.82674 4.90372 19.741
2.81396 5.0088 19.3186
2.87827 4.89797 18.6449
2.71837 5.00329 19.6715
2.82752 5.27206 19.3056
2.78059 4.9308 19.7843
2.76918 4.83761 19.0075
2.76574 5.072 20.4571
2.78568 5.4594 20.4006
2.7594 5.02919 18.7785
2.81035 4.88264 18.8481
2.81593 5.03778 19.427
2.87641 4.60532 20.0821
3.00977 5.11156 19.4
2.78231 5.01043 19.8565
2.79228 5.1581 20.1032
2.77897 4.92224 17.6517
2.6169 5.16157 19.688
2.75736 4.96036 20.0314
2.86736 4.97118 19.9579
2.78291 5.11824 19.8696
2.74009 4.94263 19.1596
2.75154 5.20567 19.0938
2.73717 5.15349 20.9227
2.85017 4.80556 18.5908
2.64469 4.9125 19.1516
2.75102 4.9435 20.1382
2.80176 4.86088 18.9621
2.68663 5.00705 18.5799
2.69916 5.0324 19.204
2.71851 5.14868 21.0967
2.79688 4.99265 19.3223
2.71577 5.09769 20.7795
2.83877 5.45621 20.0175
2.73274 4.91819 18.8844
2.69131 4.99625 20.4173
2.78264 4.8225 20.1203
2.81987 5.35673 20.3961
2.84779 5.27463 20.4304
2.81334 5.09583 19.2733
2.64801 4.87463 20.3756
2.80901 5.03632 18.3511
2.7237 5.17052 21.0087
2.8434 5.18926 20.9108
2.79602 5.28136 19.1784
2.58091 5.05435 19.7375
2.73419 5.0633 19.7623
2.77676 4.82007 19.4517
2.77606 4.7234 19.2735
2.72145 5.31563 21.9264
3.03557 5.4149 19.8376
2.65357 4.77203 21.2114
2.84525 5.32952 20.2381
2.77429 5.21211 20.447
2.79364 5.01361 20.0819
2.7965 5.38028 19.7823
2.71406 4.76696 19.7356
2.71731 5.28351 20.0746
2.81741 5.09219 19.1359
2.64328 5.1438 19.7135
2.72088 4.83132 19.6578
2.72099 4.96344 19.3642
2.68166 4.8711 18.5281
2.73689 5.28697 19.9417
2.74757 4.68612 19.7113
2.68784 5.0859 20.3806
2.81748 4.96682 20.1457
2.77975 4.84165 20.3213
2.70154 5.04421 20.0961
2.82569 4.9858 19.8137
2.75475 5.26834 20.6389
2.83651 5.15029 18.7472
2.60153 4.67033 19.6029
2.74758 5.08197 20.3206
2.74204 5.30172 21.326
2.80135 5.05969 20.0432
2.68253 5.05716 19.1872
2.6822 5.05992 19.5145
2.75166 5.06386 21.0215
2.65427 5.28644 20.0951
2.6695 5.06078 20.5983
2.81099 5.03219 19.2925
2.6419 5.3688 19.796
2.72921 5.5277 22.2922
2.83686 5.19945 21.2887
2.82274 5.39426 21.4837
2.74222 5.07993 19.7649
2.66444 5.07032 20.1907
2.79461 5.01066 21.6836
2.85701 5.29935 19.772
2.70972 4.89188 19.403
2.82462 5.34103 21.0504
2.80427 4.92622 20.5159
2.87554 5.21739 19.2604
2.74721 4.82618 20.5103
2.83365 4.86026 18.4387
2.59894 4.96177 20.5674
2.69549 4.85089 19.5528
2.77855 5.0756 20.7348
2.72575 5.018 19.9345
2.78465 5.22042 20.1023
2.73348 5.31509 21.0315
2.73276 4.97367 21.2424
2.79395 5.2773 20.4275
2.7629 5.27014 20.0626
2.6801 4.68137 20.066
2.59128 5.13904 19.9964
2.68618 5.06847 20.3101
2.83095 5.41318 21.7233
2.85143 5.54688 20.3316
2.75094 4.98359 20.0019
2.77939 4.82505 20.7306
2.68778 5.45736 21.5102
2.87546 5.10412 21.8282
2.89786 5.44226 20.6584
2.79164 5.31072 20.7879
2.80627 5.25338 21.2041
2.76313 5.10237 19.9667
2.73203 5.09135 20.6718
2.67324 5.48105 21.7505
2.84944 5.45986 21.8783
2.91699 5.07018 19.7486
2.67014 5.10042 20.3956
2.71918 5.13228 20.2623
2.86165 5.17482 20.7482
2.83683 5.01528 20.469
2.78885 5.40786 20.1056
2.62482 4.87855 20.392
2.84411 4.99095 19.8766
2.77695 4.91855 21.2764
2.78372 5.26809 21.0913
2.84064 5.34156 20.457
2.67844 5.11118 20.9879
2.7774 5.06462 19.3884
2.64548 4.80095 19.4753
2.69477 5.13076 20.3861
2.82656 5.00295 19.8364
2.82023 5.00557 21.2708
2.7971 5.30116 19.6462
2.70686 5.08533 20.3347
2.73212 4.9924 20.7552
2.70738 4.98032 18.9998
2.64517 4.90602 18.645
2.64381 5.08262 22.8118
2.96828 5.7062 21.8407
2.95378 5.09663 20.0149
2.78482 5.33234 22.1587
2.81468 5.32022 20.5883
2.79699 5.19075 20.5677
2.62988 4.9579 19.8951
2.69832 5.24944 21.8985
2.89554 5.46744 21.0866
2.72232 5.28356 20.957
2.73827 5.45342 21.1271
2.81573 5.1618 20.2481
2.7782 5.12652 20.799
2.76113 5.31828 21.0324
2.77782 5.25564 22.0323
2.78697 5.54544 20.4784
2.82404 4.91394 21.0643
2.74346 5.3724 22.2624
2.75141 5.73781 24.0222
3.01406 6.00746 24.616
3.06593 5.91601 21.2073
2.72596 0 0