# pn-170911/RbIIA-25-KOKB-1280-1959.psd
# Power spectrum* (dif=0,1,2) (really just |FT|^2)
# NOTE: only the first half! (symmetric)
# weeks: 1280-1959
# 1 clock-days, 2 excluded
# PSD: 1441
122.731 0.315022 0.00101775
57721.7 8.53657 0.0132351
285171 15.6872 0.0112298
251433 6.2141 0.0170515
397811 13.8737 0.00799922
6565.06 10.6988 0.0152839
5099.76 10.7322 0.0165853
41501.5 1.42616 0.0172474
83618.8 6.79553 0.0161059
9193.97 7.58555 0.00789132
23122.7 3.99972 0.0248219
922.93 8.63494 0.0218279
24032.2 2.88235 0.0193029
8203.15 0.012448 0.0132191
24634.6 11.015 0.0447758
19936.6 8.64078 0.00247718
10320.6 6.54936 0.0415655
7278.31 1.81811 0.00470107
3220.06 0.123537 0.0157719
7765.41 2.40824 0.00550309
7006.92 1.46948 0.0144709
4069.46 0.529583 0.0201103
5495.69 1.3007 0.0168598
1211.41 5.17265 0.0454093
2204.79 0.871333 0.00479742
1442.63 0.324166 0.0095569
1077.2 0.648045 0.0221974
5587.31 6.32831 0.00595055
2343.39 0.305655 0.0119897
107.871 3.13469 0.0274396
874.37 0.269299 0.016017
838.572 4.48639 0.0102444
1812.02 1.48061 0.0384027
626.308 0.615406 0.0111912
600.667 0.430439 0.0168613
1461.51 1.47111 0.0422587
586.909 0.59417 0.0106054
3688.94 6.0949 0.0382678
770.867 1.84544 0.0499358
1417.2 1.28049 0.0405468
1316.13 1.8282 0.000775049
1323.51 1.28735 0.0403099
647.4 0.0365772 0.0105269
695.799 0.207531 0.00523197
843.826 0.146334 0.011996
1.93317 5.78865 0.0778928
1458.77 1.92714 0.0344085
165.103 3.17089 0.0284591
465.167 0.712703 0.00346473
332.28 0.40181 0.0103705
587.981 4.58352 0.117032
188.763 2.20472 0.0677116
1437.72 4.45934 0.101063
1162.06 2.81557 0.0732701
711.813 2.18165 0.0853718
817.584 1.45158 0.00684678
716.226 1.24533 0.00411537
916.122 1.95663 0.0209624
905.175 2.72006 0.0204801
629.419 0.725837 0.0162763
340.966 1.0067 0.00177165
592.071 2.15948 0.0898141
657.283 1.75325 0.0143387
100.321 1.75185 0.0683656
882.176 3.56096 0.0490815
61.8906 3.19582 0.102283
275.188 1.76707 0.0931513
31.1297 6.71092 0.144855
258.818 2.1687 0.111203
807.884 3.20483 0.0846771
591.091 2.56942 0.109595
661.693 2.63721 0.082768
53.4294 1.71883 0.073757
218.72 0.0324991 0.0105138
281.065 0.0935639 0.00967415
523.225 2.47674 0.0422603
8.01391 5.97819 0.198049
41.1895 2.64502 0.121668
278.72 2.78535 0.168713
303.046 0.695654 0.00134158
459.531 2.53293 0.0395429
34.8537 2.8243 0.13537
350.48 1.23219 0.0804274
52.1756 1.34298 0.0767251
335.597 1.74395 0.0145639
246.669 1.34623 0.00986688
306.314 0.729938 0.028455
176.38 0.0189537 0.0102727
107.756 0.217959 0.0337646
196.075 1.45036 0.0148104
107.77 0.197065 0.0128486
117.483 0.176169 0.0329026
42.9678 1.54876 0.103015
170.712 0.543061 0.0697738
182.729 0.200468 0.0372051
114.556 0.560412 0.00954797
96.2724 1.29083 0.125576
175.443 0.498483 0.000753003
218.147 2.067 0.17689
186.56 1.47065 0.0181917
314.742 2.25797 0.13198
116.651 0.163505 0.0470832
80.2074 0.798516 0.0249982
216.274 0.932721 0.0823393
256.847 2.35433 0.0697823
136.656 4.56472 0.143775
44.7157 2.01228 0.0795943
17.0326 2.80566 0.202643
102.649 0.96701 0.0260037
115.633 0.844944 0.0995051
12.2947 2.88636 0.193938
216.765 2.20454 0.185866
45.2535 1.36844 0.154831
86.0999 2.60785 0.10854
125.544 2.13149 0.21974
98.7781 0.0632683 0.0351185
128.244 0.987382 0.139916
64.987 1.11987 0.0400056
27.5675 1.74126 0.191766
123.661 0.340128 0.000797758
84.5146 0.645238 0.0169049
99.3743 0.160885 2.47182e-05
67.9043 0.654359 0.111616
35.2115 1.72563 0.134183
213.253 2.03946 0.111172
116.618 1.10499 0.163589
87.5124 4.16823 0.209243
31.073 1.24032 0.111324
148.922 0.991859 0.0878895
41.1249 3.61513 0.427056
92.639 0.715211 0.0156276
113.349 0.294587 0.0253655
71.4294 0.00147923 0.0195322
62.445 2.06548 0.127365
103.266 0.266426 0.032125
94.0974 2.05532 0.288183
174.304 2.10393 0.167897
79.6207 0.145504 0.00818655
23.2653 1.18305 0.1736
106.563 0.836285 0.0250957
50.2478 0.16687 0.0578631
63.6364 0.319231 0.00595716
50.1456 0.0830222 0.0197946
38.8908 0.367721 0.0536834
67.4962 0.361146 0.0133482
125.687 1.59184 0.194928
80.1394 0.213829 0.0281741
62.5469 0.189806 0.0724185
17.7307 2.87797 0.259667
28.3762 0.861549 0.12162
113.874 1.37705 0.0753227
43.6709 0.0674734 0.0243097
83.9629 0.485872 0.0369067
24.012 3.88872 0.577135
52.1685 0.0966569 0.0112044
57.4521 1.3051 0.0712533
8.29809 2.33792 0.325118
41.0076 0.394594 0.0587335
61.5913 0.0200245 0.0150781
62.7317 0.391675 0.00723224
55.2434 0.600555 0.0283832
33.8273 0.625071 0.0723917
64.2967 0.832733 0.0602599
45.9082 0.863792 0.167072
11.2846 2.61066 0.490247
75.2765 0.249311 0.0218894
72.8789 2.87897 0.258374
49.4273 0.00186698 0.0150218
104.372 1.91525 0.276315
3.45284 4.56883 0.72096
165.14 6.11944 0.614953
23.7767 0.51141 0.0964073
92.5469 3.09329 0.50646
36.6444 0.283569 0.0381282
98.0695 1.72612 0.241813
50.1857 0.938832 0.0645942
43.0788 0.0206548 0.00259564
23.9773 0.507963 0.0754607
18.9304 1.49954 0.375427
106.579 2.8134 0.260706
57.1885 0.412454 0.0364265
31.5565 0.608771 0.0758389
13.1368 1.2214 0.263216
98.2993 6.41243 1.11697
77.4981 1.44813 0.135857
40.136 0.304477 0.0676091
80.0432 4.09329 0.786825
15.5275 2.04097 0.504113
32.673 0.301726 0.164491
32.8166 0.171575 0.142971
105.116 3.22538 0.455362
38.9226 4.15697 0.526018
11.8811 1.09019 0.241383
32.761 0.240766 0.0378435
25.4557 0.475647 0.111517
60.6129 2.1568 0.377754
65.7315 9.71614 1.91433
95.6476 2.73528 0.36649
18.817 0.878096 0.229025
49.6008 1.52214 0.35719
28.1069 0.931571 0.291046
12.3181 4.97422 1.43163
135.218 6.12927 0.989975
55.2057 0.938141 0.290932
94.6917 4.5608 0.674192
12.7543 2.3089 0.707611
94.2287 6.81051 0.979384
17.7314 0.370828 0.125614
70.7805 1.79561 0.31219
22.3367 0.157173 0.0907315
43.6957 0.281419 0.0623968
37.317 0.150454 0.0711558
36.4235 0.0606535 0.0107822
133.955 9.13598 1.68717
21.7378 1.36832 0.453364
132.055 10.8381 2.19885
8.18848 1.20001 0.201331
40.6532 3.71421 0.951262
22.0625 0.706279 0.0857187
34.0513 1.0796 0.355772
17.4019 0.480857 0.0483832
6.32613 1.99336 0.558813
18.4349 0.373043 0.229393
37.0435 1.70681 0.271544
55.9207 1.39777 0.250939
21.0624 0.110726 0.0233848
32.1782 2.19995 0.621965
24.5831 0.105006 0.0938342
38.777 0.456076 0.0746383
26.3427 2.0749 0.701559
36.4037 0.870744 0.421988
53.3386 2.59012 0.465044
9.36644 1.63496 0.292982
34.9209 1.20951 0.228785
8.11727 0.93294 0.221945
26.2599 0.0645644 0.0173673
7.60124 1.25723 0.346242
51.7565 8.55978 2.51614
17.4748 2.14964 0.400548
11.1136 1.36198 0.472115
34.5672 1.64956 0.584269
9.8423 1.85751 0.770669
8.80314 1.12168 0.606396
27.9063 1.71479 0.221271
22.3492 1.19636 0.20034
11.0446 0.688725 0.23358
24.6115 2.60645 0.604326
19.6519 0.560908 0.154193
4.56593 1.95612 0.698641
11.3996 0.816458 0.457724
28.7537 0.0464229 0.00635843
18.475 0.0790212 0.0980083
11.1712 2.46927 1.08747
61.7767 2.25687 0.30212
57.2696 3.20525 0.788264
34.5507 1.42547 0.316265
35.0234 2.06683 0.630532
7.46324 3.30012 1.08696
41.9555 4.56749 1.60717
19.0335 1.92147 1.04672
23.1846 0.231211 0.0149786
5.12581 3.32135 1.38997
16.8699 0.788034 0.700146
26.664 0.739668 0.0633268
37.0685 1.77655 0.324552
13.8101 0.192372 0.145703
10.395 0.779147 0.287398
7.04129 1.74113 0.992305
64.5508 4.13945 0.926753
5.50804 1.61623 0.851971
63.0463 4.10441 1.01513
16.3811 0.495434 0.373242
51.13 3.93106 1.09798
8.95713 0.657032 0.163116
10.4177 2.29897 1.06144
24.8534 1.26305 0.233758
4.89127 2.63534 1.18432
34.6714 1.09611 0.251158
10.1652 1.41833 0.867688
48.1024 2.77404 0.901335
33.2993 3.72361 1.08052
36.1899 2.43289 0.859589
6.34284 0.906935 0.462784
37.014 2.03151 0.788586
27.5226 1.09752 0.490775
1.83063 2.1632 0.834406
25.5261 0.727167 0.217613
5.25566 4.66475 1.6157
12.3585 1.18525 0.593358
8.0161 1.73273 0.762014
11.9228 0.277409 0.265917
18.9305 2.03469 0.91589
11.3742 1.84899 1.32261
29.3561 0.48463 0.0158044
24.7224 1.66239 0.940609
21.3938 0.150224 0.017156
17.0131 0.001878 0.111738
32.8943 1.73357 0.353765
11.2272 0.39624 0.204621
35.8989 1.91051 0.563461
18.062 0.492592 0.172756
4.60732 2.15188 0.839245
6.47039 3.95991 2.14721
17.1857 0.409629 0.358722
36.4232 3.30137 1.46983
27.9173 1.86767 0.435224
28.8708 1.96742 0.921493
18.9711 0.953968 0.20266
24.4185 0.546439 0.123667
27.5538 1.5882 0.494343
34.0144 3.57036 1.85554
5.31163 2.35794 0.832003
14.7269 0.375592 0.115568
21.6021 3.52861 1.91323
0.589786 3.88282 2.06319
22.6717 0.522846 0.278631
3.73625 2.37013 1.69686
11.5606 0.242338 0.491867
21.6559 2.67054 0.886319
41.5921 3.56296 1.21172
7.68065 0.461032 0.130459
8.72174 1.75325 0.807914
8.80414 0.664428 0.816203
45.0562 4.19221 1.35495
12.2317 3.90981 1.7773
12.2518 0.0591265 0.161729
15.1272 0.0387367 0.07321
16.8864 0.103967 0.0625577
26.6694 3.30175 1.7767
27.4513 1.56123 0.834041
10.3658 0.547576 0.357478
50.2638 7.55297 3.0495
2.99064 1.17461 0.643938
20.5523 1.16819 0.337067
5.81963 0.756358 0.634145
18.6182 0.135166 0.0588205
24.308 2.65522 1.14231
27.2043 3.84502 2.13305
20.5635 3.0673 1.15571
17.4063 0.965937 0.665042
24.3782 1.11068 0.110177
39.8016 6.30966 2.75808
14.1607 0.344723 0.176533
11.1913 0.00913899 0.0040307
12.953 0.181242 0.265272
20.9369 3.44665 1.49231
15.077 0.0757258 0.00509138
23.1708 0.93268 0.176749
35.5984 5.21189 2.69653
14.4647 0.377782 0.218717
23.6105 2.83395 2.3277
15.8179 3.12079 0.848613
12.5053 2.79583 1.27519
10.9775 0.15015 0.0500827
17.4527 3.08675 1.86602
1.60101 2.05907 1.23609
8.57748 0.919895 0.696264
18.6029 0.549332 0.121375
21.661 1.79214 1.14402
2.84005 4.09698 2.51454
12.0294 1.56315 1.46912
47.377 7.62381 3.36791
10.0402 1.04027 0.71139
45.082 9.15297 5.47037
5.78428 0.0643652 0.0813646
11.9992 0.698864 1.03567
0.786362 6.51896 3.54654
8.6545 2.8402 1.81177
32.4897 4.25325 2.15892
6.53616 0.0178122 0.0503743
3.93682 4.27637 2.52941
11.1374 0.509479 0.283685
4.40078 0.751245 0.692385
13.0353 3.15736 1.89495
16.9851 1.31522 0.870363
13.05 1.18374 1.47545
21.6566 4.61918 2.19603
14.9588 1.95611 1.654
20.499 7.37977 4.08007
14.5993 0.686403 0.577968
3.13122 0.791538 0.500252
10.0541 0.327497 0.302244
6.17732 0.396428 0.590298
24.1275 3.05337 2.23211
4.39439 2.55658 1.2855
7.4766 3.38843 3.50643
23.1304 5.02538 2.24284
22.19 1.98938 0.84201
17.9225 1.93158 1.466
6.19434 0.155786 0.184754
1.66787 2.56711 1.70718
13.6526 0.360567 0.196501
5.59332 1.41256 1.0593
5.23622 1.69493 1.42086
13.0432 1.54094 1.24924
6.42738 0.588148 0.832897
16.9972 0.606358 0.0204327
18.3448 3.36662 1.95752
19.965 1.56637 0.59537
24.8275 5.20347 4.28441
3.60934 0.258868 0.000434941
0.893988 2.71536 2.14782
9.29387 0.556671 0.560728
27.6994 9.37597 7.10066
10.4628 3.19004 1.98467
13.7253 0.402938 0.344363
26.7946 3.23379 1.28905
23.2875 3.35241 1.67666
24.303 5.85417 5.1213
4.42212 7.35187 6.40904
28.0679 4.93147 2.27688
13.2389 1.38308 1.65598
19.5662 10.1972 7.22999
14.1041 1.40202 1.19776
11.8402 1.77049 2.55344
1.75019 0.546728 0.00479966
5.50169 6.39334 4.4469
5.49811 0.266097 0.626718
7.06081 0.0180204 0.163806
7.11394 2.6947 1.49235
1.41356 2.14659 1.87033
12.7534 0.82745 0.558322
2.45401 1.75644 1.89499
12.0632 8.08391 5.27289
14.248 2.07445 1.83134
2.8915 0.978761 1.03469
11.4384 0.585235 0.469641
4.20343 2.16172 2.0697
8.02754 1.26778 2.07587
16.9436 2.19963 2.37999
4.25963 0.23153 0.05306
4.65735 3.07054 1.48645
1.01122 2.61514 2.08073
5.06931 0.394719 0.437107
2.28297 2.06104 2.64118
10.4874 0.0165226 0.209116
6.79749 0.355788 1.10582
22.7916 3.06912 1.39878
17.3466 3.17937 2.10079
12.78 6.63436 8.16778
6.2013 0.472657 0.151998
9.38352 1.39788 0.121449
12.3595 7.41703 5.24934
12.0869 1.16163 1.21681
3.15867 0.826405 0.878115
10.6469 1.03807 1.38808
3.1425 3.90448 2.94259
2.50824 0.911391 0.27522
0.687631 2.80973 2.33888
5.28725 0.331925 0.231596
3.70508 0.937549 1.68184
4.63141 7.10715 5.18553
7.83783 2.58199 2.28137
12.6877 2.6296 1.59259
5.04202 5.83593 5.8716
3.16 2.96206 5.13375
8.72703 0.135394 1.47471
14.7994 0.646061 0.172671
8.5493 0.43352 0.204186
7.50585 0.580127 1.79751
14.9788 4.00983 2.15823
18.32 3.5865 2.28696
8.70557 0.311073 0.1383
13.8313 6.59857 7.46915
6.14905 2.0512 1.10654
4.3822 2.90599 3.85805
13.582 1.33057 0.476001
4.00205 0.431033 0.96854
17.1961 2.54345 1.77042
4.15547 2.49988 4.34985
20.7325 4.99229 2.33251
13.3945 5.03617 5.50177
2.03572 0.135298 0.0498995
1.73682 0.998917 0.396895
0.0907026 5.8475 5.25282
8.81314 3.10829 4.12538
3.60622 1.18189 1.44657
7.26856 0.0375189 0.454833
3.53325 1.62313 2.4862
20.63 5.94528 4.35126
1.44162 1.38091 1.28276
4.22809 0.63346 1.40872
13.4081 1.43625 1.14898
2.90917 1.25544 1.54747
17.1641 3.47213 2.8192
6.53535 7.14625 6.3155
9.05052 2.66468 5.45452
3.02503 11.3755 10.2375
12.6127 2.03071 2.09292
1.63737 1.3109 1.1516
1.64026 2.16823 2.50656
1.90004 3.26805 5.85893
11.6309 0.735915 1.27555
11.4635 0.535492 0.179709
2.99791 1.50938 3.27842
22.3848 5.14582 3.60947
4.89672 1.21153 2.42867
3.88565 10.9135 10.5827
4.81326 4.15556 6.57417
9.17406 3.55507 6.39276
21.7355 3.38101 1.21122
6.33756 2.24512 4.13564
15.7365 2.82405 1.32015
3.16666 3.20665 5.55988
21.2086 6.24687 4.69424
2.80683 0.650889 1.56755
15.2621 2.6525 1.75713
6.13584 0.320141 0.825652
4.18062 6.90188 8.71351
9.85279 5.26345 5.65074
9.65146 15.216 21.1229
19.5022 4.45573 1.42449
3.29089 2.01118 3.36267
11.1173 1.3424 1.35059
3.93971 1.01477 3.79944
16.6613 1.57159 0.253663
13.2315 1.95787 1.4093
13.0514 1.94802 0.991105
6.18995 0.418002 1.57749
12.7629 9.78636 10.4103
16.0695 2.99737 2.24778
2.14576 2.35797 4.79603
15.6395 2.01085 1.02249
7.55423 0.658736 0.466034
12.6158 1.29632 0.310783
13.3614 2.97018 2.22319
10.9638 2.78881 3.13925
16.7933 9.54594 11.9327
4.60636 1.37132 0.491629
6.65326 0.538608 0.885714
1.88903 3.88689 5.84287
24.9716 11.0152 13.3719
0.0698816 5.39193 5.15349
11.2897 3.11884 3.78959
7.11955 2.4427 3.22333
7.10137 3.14916 2.51942
8.60325 1.54372 1.51545
4.31791 6.00269 11.9941
16.1929 3.80165 1.43688
9.11148 1.21437 1.2221
16.444 7.89206 12.5664
1.17619 2.75467 0.9887
2.56399 0.267967 0.118992
5.59975 4.67383 7.78076
7.46045 4.83481 3.70987
3.21673 0.253867 0.403292
4.60894 3.19751 5.2624
13.1708 3.25558 4.48779
0.217033 4.27262 4.20732
7.24798 5.99954 9.42926
3.98539 8.54972 12.6097
12.1623 2.94076 5.34277
13.5187 2.99482 1.92848
4.74336 2.43655 5.44664
11.2111 2.14425 2.78762
21.9961 9.20799 9.41395
4.80304 1.80483 1.52282
6.48902 0.0200831 0.386386
16.1091 6.76841 8.80289
9.16236 4.00688 3.14852
7.33043 0.614045 0.380033
5.73517 0.461807 1.38671
21.4237 15.5088 20.9548
9.89752 5.3998 8.98734
0.0766099 4.61403 3.82465
7.75189 1.114 1.84686
2.15697 3.99931 4.49758
0.614727 3.31079 4.31719
2.13327 4.0311 11.7685
17.7699 2.93952 1.12329
5.13636 0.0643948 2.03127
19.8296 6.46028 4.65331
11.6782 5.15135 6.22663
3.23671 0.317666 0.858746
3.1553 0.0391068 0.569483
3.965 1.26453 1.97296
1.44412 5.99527 10.836
13.7821 6.91508 5.1842
6.06772 1.62495 3.45344
8.07541 3.17754 4.82006
2.32037 3.76288 4.38982
7.1828 0.68074 1.82536
9.62634 4.52171 5.25769
3.61559 0.309067 0.767926
1.67256 2.03841 1.9016
4.33135 1.92006 3.55287
1.68039 2.19162 6.65949
13.615 4.40322 9.11992
5.90618 0.950672 0.408356
10.2348 10.1997 9.33683
8.87792 1.60067 1.13448
7.55585 2.69761 4.35577
6.10931 1.86814 2.86447
7.0246 2.81073 3.79192
1.88807 0.0367714 0.136182
1.99104 0.75962 0.611272
0.174258 4.9868 8.77596
13.3561 3.64709 4.44585
1.5003 4.20353 8.44968
9.64078 6.69685 5.41857
6.54766 4.56489 9.51343
5.41601 0.857825 0.473857
4.72728 0.85744 3.76209
14.3019 6.67371 6.18433
5.76008 2.70072 9.06922
0.89468 8.25282 7.99421
4.20219 0.249501 1.2399
6.63717 1.58567 2.17972
6.21585 0.535974 0.548783
3.69795 1.92448 4.26458
6.3739 5.10652 8.70812
8.17771 5.04701 5.71807
5.79307 0.234539 0.0214021
7.62373 2.42154 4.80178
0.593024 1.38649 1.1984
3.51196 0.290253 0.870774
3.68963 0.462093 2.74799
9.12578 2.9472 4.83763
1.5517 6.32003 5.80017
3.44112 1.42776 2.87411
1.76207 2.70171 5.73936
5.48299 5.06115 13.9763
22.0055 10.0203 10.521
1.64856 0.448185 1.71646
10.5709 4.14043 5.53617
0.440047 1.92216 2.74864
6.59601 1.24604 1.03669
2.31914 2.29844 6.80162
11.1916 3.37134 2.71566
5.38777 2.38775 6.13672
8.4738 6.30241 8.61666
0.69007 1.68724 1.12204
1.43006 2.11676 4.67562
7.1971 0.590921 0.510711
3.99207 0.148244 1.21035
9.66663 5.04901 6.87915
2.09347 0.250678 0.470659
3.36898 0.952749 3.30446
9.20931 2.34836 4.30549
4.57331 0.812404 0.133897
4.60436 0.684142 0.969106
7.16065 2.67448 4.90267
2.49414 0.326057 0.0481542
4.97431 0.702334 1.65358
1.39952 0.397422 0.960737
4.4521 1.34417 1.8166
1.876 0.531786 0.976309
2.23658 3.30987 6.59117
8.52837 3.43287 4.74252
2.98896 0.0983405 0.0326634
3.84649 0.144075 1.119
5.70196 7.75873 14.8578
3.23073 2.62391 1.27936
3.58777 1.10854 3.1242
0.886009 4.92203 5.47954
1.09383 7.72407 20.3605
17.371 6.51113 6.19978
0.947747 1.65553 4.50824
8.76265 1.67524 1.15376
4.45709 1.31962 4.01756
2.63564 1.68207 2.61522
3.06083 3.36261 6.25852
1.74411 0.52788 1.82581
4.87889 7.02552 9.86256
2.8161 4.02426 7.10774
4.13975 5.36716 6.11417
0.992993 2.84499 5.74163
1.1797 5.57654 20.041
14.0685 2.18541 0.130395
11.1651 6.08629 10.6478
0.406 9.70704 18.316
8.17743 2.74035 5.73534
7.60189 5.17198 10.0122
10.1345 3.37775 4.19117
0.92763 2.771 6.37197
6.42742 0.663592 1.50502
1.3028 3.334 4.91492
3.32916 0.616036 3.7183
6.73322 1.76242 5.94549
7.96338 6.49046 11.1553
10.7116 3.04648 2.46514
3.42186 2.71796 8.78551
5.71468 0.617145 2.35824
1.96379 2.20582 4.28635
9.10577 2.59536 2.65538
3.08614 4.17153 6.58977
2.86379 3.69014 8.74909
5.71078 2.14949 0.999373
0.233054 8.01286 21.521
12.8524 2.48737 0.539571
6.75566 1.2991 1.03782
2.00126 0.794236 1.03274
3.36543 4.87648 12.723
9.84566 1.35039 0.385486
5.31919 4.22447 17.751
20.0435 15.1844 16.4438
6.16888 4.09789 9.87001
0.133131 2.97086 3.96553
4.54228 0.376812 1.97697
6.8147 4.94634 13.3518
14.2337 13.683 23.2432
0.302256 9.08084 17.2716
7.71999 1.96558 1.90626
0.221385 6.97767 20.0276
12.6245 5.97109 7.22024
5.97519 0.698128 0.0648943
4.24648 0.220532 0.0123991
4.85247 6.39654 21.3239
8.02778 7.82096 7.90691
5.89779 0.227749 0.864201
8.35464 4.45183 4.68077
11.5316 10.551 21.0618
3.35904 0.685384 0.45728
2.53137 6.20097 24.1017
18.7604 13.4896 15.0107
1.37218 0.0205586 0.0479828
6.09309 3.62695 10.8554
0.0768447 2.74516 5.77356
3.39758 0.684466 0.816837
5.0865 0.824228 0.738483
3.56666 2.15838 7.82407
2.80676 0.345541 0.55915
1.65878 3.19894 6.24377
8.11546 2.44585 1.99793
4.28787 1.64165 5.22547
5.44913 3.53909 10.704
0.164994 5.61042 15.4797
9.12232 10.9372 7.09988
1.32115 8.81297 16.648
2.57877 1.05063 6.3527
5.95621 1.76672 2.12932
0.138184 5.64594 11.7456
3.526 1.41804 10.9253
10.6864 5.23681 14.0726
4.85629 0.770983 1.66366
4.43339 0.229188 5.46314
10.6797 9.21385 5.39722
4.02235 6.74597 20.6112
15.977 6.95625 3.96863
10.4696 16.1241 26.7744
0.670599 2.65983 10.3954
7.24216 0.434569 1.64149
14.4484 14.5123 22.3695
2.64987 0.784548 3.78096
1.33866 2.69108 11.5659
6.21378 3.47848 4.40997
2.7868 1.49268 2.34173
5.53874 2.2783 4.7842
1.6256 1.36439 5.93108
2.44258 0.0820277 3.79655
2.4196 1.98315 2.63364
7.01186 4.63869 7.76486
2.84895 0.665727 5.92465
0.567846 6.4342 7.72817
2.83442 0.361069 1.34884
2.35544 0.766024 4.032
5.84077 0.547089 0.0277488
3.97307 1.78584 3.546
5.81044 3.33352 10.4511
0.334862 1.2396 1.8618
0.986168 2.84151 15.9694
6.45424 7.23562 6.07133
4.56078 3.13342 6.8438
1.57623 2.52528 4.33113
1.07474 8.85077 34.6619
16.9674 7.81267 6.82109
2.58218 9.15429 24.2984
3.7006 4.57859 13.3248
6.53379 1.39556 8.26175
7.46244 0.217178 3.72212
7.71695 0.361792 6.01207
15.4366 8.59699 6.09564
9.14442 5.6742 3.84527
6.74243 7.34258 13.7825
0.788343 1.38399 5.91069
6.02585 1.8871 2.06329
1.44291 0.604676 4.82504
10.6182 8.10177 11.0006
2.59945 1.40235 9.95595
3.7276 3.36779 4.84409
7.95436 2.21668 3.45409
15.2108 25.9402 53.4302
0.0222389 2.08884 10.7626
3.38958 3.9877 5.71158
1.96292 1.70781 3.44994
3.95155 1.92724 5.72357
0.893022 1.88235 5.2205
6.69413 4.67399 4.65725
3.91807 1.48524 2.73268
2.5295 3.39403 13.7834
0.308713 12.6654 29.1987
7.76078 1.7663 2.15723
6.06718 8.17025 30.9616
3.73344 22.5058 49.1892
12.3104 4.87876 8.54608
4.38022 0.218996 2.12417
6.57024 1.15662 0.284403
4.82091 2.09782 9.15951
6.96688 5.43576 7.2267
4.77589 4.20051 11.321
6.34161 3.74207 9.32192
2.28534 2.80145 2.21348
2.16825 1.38548 6.27361
0.261722 4.75775 10.1179
5.35777 5.40399 17.4116
12.3667 11.3755 22.1712
0.785878 2.33686 3.52926
2.83604 1.66747 14.0081
2.26194 3.74408 0.221492
1.73692 9.87319 22.3163
4.11405 0.869248 2.01054
4.20721 1.62636 5.75005
2.26806 1.02759 2.65495
6.10913 10.3018 17.6593
4.37255 5.31415 30.9999
6.29425 4.58276 1.03903
1.2349 2.80985 4.13672
1.63685 1.71928 5.6004
3.67355 2.88487 6.61086
1.7367 2.48391 4.27961
1.03498 6.65628 33.9619
10.9165 0.659879 4.59967
10.0134 2.88783 0.353417
8.24359 7.68338 12.711
4.53323 1.60805 1.75483
2.71388 0.815197 3.02601
1.02814 8.48981 29.9166
8.51754 2.04826 8.1335
4.92485 1.05604 10.4919
5.30715 6.38046 2.24809
6.51966 11.2064 15.7312
6.76901 8.83464 27.5978
4.01186 0.86636 0.588499
1.99514 0.260175 0.589275
0.452628 4.98998 21.4935
10.8642 4.50917 3.70602
1.60859 0.621129 5.87186
7.59002 1.66007 2.6603
12.2102 15.2672 24.8516
1.65255 3.95312 15.2671
0.417372 0.488682 3.69485
2.1078 0.922095 15.6004
2.0493 7.56075 3.77395
2.7423 8.07823 20.5149
4.31893 1.33862 18.5684
4.85547 22.8709 49.3306
9.1707 3.09949 1.77533
1.75877 1.58742 8.47577
1.48326 10.1662 48.2682
18.3644 10.835 3.96242
5.29947 7.28291 15.7124
0.119695 4.75968 16.4595
7.42699 3.35509 5.56529
1.77116 3.86567 10.1294
3.72224 0.99628 2.62173
1.59891 4.31766 11.1339
6.88024 10.0301 38.5758
11.3322 7.97818 11.1352
0.811214 1.1961 10.2479
5.11207 3.49856 16.5359
0.388892 7.48295 8.97799
1.92681 1.72876 12.0635
4.56371 1.3593 6.22951
6.288 5.50466 8.73639
5.20746 0.832369 0.799019
3.45406 0.538195 6.91718
7.73582 14.1601 35.2548
4.85834 5.82372 14.2119
1.57225 13.1476 32.7357
6.50624 0.0174751 4.05967
3.82452 5.58339 31.198
9.99415 0.949793 11.0646
11.0113 7.98643 7.22772
10.3404 8.99718 8.71552
3.93254 0.733445 0.68754
9.61774 12.8028 23.0207
1.57643 0.718826 5.76161
0.731821 1.39574 6.13082
7.43013 4.96257 9.94494
2.3771 2.16719 3.24829
3.55648 1.34433 3.22148
1.83038 0.550695 0.35627
4.07809 3.42771 13.336
0.00577985 4.41516 10.1327
2.53431 1.28274 6.31529
3.96751 2.19975 8.3209
4.40965 1.31185 27.7849
17.5205 13.9167 6.3199
4.57992 3.88295 3.94951
3.12622 1.37793 0.796978
4.36654 4.30541 11.4216
0.580068 1.63876 8.34597
4.72896 3.49071 5.59029
5.53492 3.9031 6.02618
1.98803 1.72296 10.6766
0.747499 5.86583 19.6171
8.99698 6.29874 6.82423
2.23214 1.0994 8.08562
2.67113 4.46878 9.71967
4.31532 2.26984 6.55166
3.58244 3.50861 8.92073
6.43392 2.88025 1.62818
4.83796 5.99088 15.7944
9.37359 15.5715 39.1806
0.994131 1.9269 7.42456
0.615131 0.0322313 2.77256
2.58994 5.09365 11.4378
1.26879 1.27676 18.0104
0.699617 13.0329 32.1635
4.48184 1.87032 3.37332
5.01735 8.57867 44.2381
5.36131 5.53043 0.739382
3.84946 4.14729 14.2737
0.00349504 2.17655 2.22606
1.76701 8.63525 15.3734
2.23748 2.0321 21.7331
11.3149 10.402 21.1011
0.531763 4.65806 11.5799
3.84075 1.05336 6.76961
0.2447 5.34558 9.79946
3.48613 7.10474 27.8403
7.60021 4.04146 7.69151
1.73641 3.02244 17.9996
7.79796 1.79735 6.43777
8.48741 4.30704 0.155071
6.3111 7.26824 11.8773
1.08093 0.285329 2.04402
4.73439 3.67655 5.89188
1.7566 1.31657 12.3275
2.35249 4.25699 2.45066
1.47145 1.05726 0.762494
1.03106 4.74022 15.9946
9.54798 13.9456 29.8094
1.49902 0.461421 6.60165
0.261954 3.18141 9.16754
2.05679 1.36685 12.518
5.51035 4.58915 34.3224
5.91219 3.18026 1.52886
5.74221 5.03723 2.02413
5.04502 9.27645 35.9053
0.168795 2.95665 0.995722
1.75064 4.3928 25.289
5.15762 1.6424 3.84249
7.14112 6.94633 10.7402
2.28318 11.3965 29.2555
4.96985 2.89384 13.3414
0.702911 3.9489 6.66202
4.0287 1.79277 8.73146
5.13309 3.06205 11.1439
4.35651 7.37566 12.697
0.633088 3.16687 9.75011
0.636231 1.09479 5.35241
5.76559 7.08989 26.4961
0.772599 5.37308 27.3916
0.892084 5.80142 9.86412
2.98311 5.0024 5.51273
0.231685 9.39602 32.0829
7.26719 0.912698 2.08775
3.07008 5.75595 14.1317
4.05533 1.51685 14.4398
2.97439 7.39796 24.8867
7.2603 1.84286 3.88477
6.80739 5.61846 7.69774
1.11166 0.676476 10.1754
6.82557 4.84293 5.17915
1.63281 0.1568 5.84866
6.88439 10.0918 26.2312
0.685678 2.47472 0.733555
2.66808 4.28018 19.1956
1.40181 3.67068 8.18182
3.2709 0.379625 0.534642
4.51393 3.9793 10.4651
2.6513 4.7299 21.0967
0.348291 1.4555 6.65622
0.117019 0.834498 1.02234
0.526429 0.643059 2.64305
0.929822 5.42414 1.11033
0.659948 7.4874 19.3506
6.26017 8.57709 19.7774
1.69097 0.566438 2.31648
3.15598 1.95236 2.46019
0.900147 13.8686 49.7699
4.01605 9.82707 83.9598
23.4211 31.7776 48.4363
0.0274856 2.17218 8.71687
5.74862 5.78548 21.8272
1.3371 1.92942 3.41917
0.805083 5.39388 17.7578
4.29116 0.158001 15.8688
10.3729 11.1374 14.9168
1.11777 2.99735 7.23104
1.88131 0.231818 4.13052
6.61756 13.5128 45.3855
1.85423 0.059768 11.0267
3.28778 4.3059 17.0027
0.0361884 1.59958 4.11782
0.406359 4.34573 7.55291
2.42734 1.58699 24.301
8.53835 10.0543 23.3051
1.48241 12.363 57.1798
9.43655 7.39576 6.87502
6.57868 7.10208 9.97842
2.68897 2.99066 9.02133
1.47289 3.03554 24.9508
1.18107 10.9031 27.3325
5.3402 2.71236 2.99118
1.72638 0.338342 1.14545
0.893557 2.58599 22.1059
8.80404 5.80643 3.11035
3.96997 5.62228 15.5504
0.430035 0.0428693 2.91167
2.97761 10.6159 34.303
2.79329 1.20039 12.9001
0.0488995 10.3408 40.0851
9.36764 7.27338 10.7857
0.324135 0.934924 3.80114
3.79503 6.12606 26.5114
5.2815 3.65204 9.77048
1.5547 2.43926 2.74558
2.59908 4.91515 41.7977
0.888916 8.205 3.3248
1.08623 1.69615 3.81089
2.13117 0.999994 2.26593
2.19102 7.96229 59.1396
12.7047 10.9184 20.3273
3.088 7.90603 11.859
2.20766 0.98482 5.86488
2.50944 6.89165 30.981
4.72299 10.4425 29.013
2.32002 3.14017 4.45212
2.47168 0.456609 1.23832
1.17902 2.43995 9.24348
3.78744 2.01033 6.86004
1.67349 6.57454 18.6765
5.08532 6.96692 35.8112
2.28009 2.61148 21.1403
0.342131 10.3211 25.4796
3.19395 0.688561 34.4246
7.08039 9.91865 13.3271
7.42546 11.0988 27.171
0.0620993 0.254077 6.58053
2.02493 1.95129 4.0657
0.565691 0.0206862 5.98315
1.34925 2.69267 2.78548
1.23019 0.545249 16.2843
0.59301 7.90007 11.5982
4.3456 4.25227 41.7067
1.59474 17.4509 18.6528
2.91195 2.43753 9.30973
2.88739 3.66052 20.2485
3.96968 3.06608 2.06408
1.63591 0.242145 6.20379
0.258898 2.82268 1.47295
0.291568 8.23827 24.8629
3.44976 30.7438 143.253
17.9122 3.49388 11.1771
9.01828 7.20089 1.67739
2.48607 1.64542 5.63719
0.661387 14.045 117.903
18.5447 27.5924 25.3878
3.69745 0.195723 12.7541
8.97827 12.433 8.65312
1.65572 0.866027 0.800356
4.31013 7.56441 9.99721
3.1713 9.45693 50.706
1.86666 8.68128 10.296
3.74748 5.1054 23.7906
0.154149 0.600296 9.09978
0.625427 10.4556 37.3445
9.06834 10.4884 41.4949
4.55674 13.5402 16.8192
1.77294 1.27355 15.6769
0.18576 7.66399 16.4478
4.77308 1.3888 4.62722
3.80026 10.8218 28.4856
0.129925 12.4529 60.9824
4.23476 7.27687 13.3191
4.64988 2.79611 15.3147
3.48125 6.29109 23.6118
0.863418 3.23191 2.43519
1.0783 0.641248 3.21138
2.4197 1.88696 14.7368
2.93469 9.10634 29.6853
0.786577 5.63154 9.74856
3.04871 0.0642381 2.87523
0.845264 3.74404 7.91201
2.16199 0.783094 4.68658
3.03864 3.61672 13.3573
2.89166 0.394703 0.0872938
1.47066 0.574322 1.54681
1.64977 0.710509 5.74798
3.41339 0.284639 0.155949
1.74443 0.709825 7.47438
4.46745 2.42018 9.62499
2.23221 3.64145 13.4584
3.01974 4.39587 17.6936
4.18332 2.53311 8.41262
5.28393 6.01142 26.7856
2.94448 7.92118 14.6227
2.53007 0.941926 4.62187
3.63552 3.16445 8.36683
0.222272 2.44435 11.9389
5.22178 2.33808 0.178245
2.9085 4.54662 21.5132
0.652481 3.85381 3.27265
1.3208 1.00219 2.64223
1.77229 2.22147 19.8993
3.55478 1.89481 5.60844
0.779452 0.888024 0.678289
2.06915 5.48518 21.3728
1.85627 1.59136 11.9616
0.476122 12.0544 36.8605
5.45474 0.979737 4.49899
0.565004 5.42974 40.6673
9.32928 26.0327 64.3909
4.04719 1.97225 14.896
5.28167 2.31584 4.6314
3.41209 1.26317 19.2642
5.52043 5.45328 4.86133
6.35992 16.9614 41.4001
0.0842178 7.41198 41.4839
3.69518 2.01746 14.5678
0.382291 4.30234 1.51474
1.68803 3.17157 5.53447
0.778695 6.53232 56.2679
8.85956 5.44953 0.0927197
2.43314 1.32874 0.930912
2.72498 1.40974 6.33915
6.03235 21.7653 47.2931
0.922278 1.27687 11.6324
1.09795 1.50558 6.68075
2.80095 0.0268684 5.93891
4.82591 23.1046 110.993
7.37383 4.96806 3.3576
3.08991 0.169508 8.39267
4.91248 5.74994 19.0414
1.07065 0.117976 15.7497
2.16493 5.03926 10.2534
0.543711 5.28856 16.4835
4.06921 1.48659 24.6358
3.22083 2.66879 1.6679
2.4984 0.334229 26.7307
4.114 16.4961 15.4591
1.64602 3.98174 31.4353
6.65087 2.65551 26.0667
6.52841 4.50296 2.69324
4.65803 6.2556 0.2182
2.75847 12.5718 35.072
2.27757 0.304462 20.7451
6.70304 7.12989 5.05825
1.3144 0.974711 0.265619
2.75666 6.40964 17.7491
2.003 4.50911 29.2747
0.390798 0.123822 26.6714
2.08428 12.5814 12.6744
0.6236 1.63091 4.37238
0.286499 5.43968 11.4499
3.31517 2.86531 17.6508
3.64106 2.22338 10.9973
3.26706 1.74497 2.4235
3.53637 11.0199 21.0143
0.944953 3.4952 27.7216
4.6911 1.08311 0.615682
1.31764 4.94601 28.3992
5.52676 2.32313 8.66336
1.92282 0.179773 1.37369
2.83844 3.29452 7.78419
2.49304 5.1077 34.4486
2.51119 0.366681 28.96
4.7079 0.65313 27.6145
5.1142 4.25679 11.3663
1.49827 1.64862 19.7786
5.38972 20.6007 55.541
8.94395 8.64745 6.29172
0.845823 2.60369 36.9409
8.03026 9.32916 1.2427
3.08745 11.3005 66.2672
5.63025 19.1788 74.6966
1.90576 9.25906 24.1426
1.58284 35.8834 49.1489
4.41887 8.39123 54.6005
7.11867 5.12232 9.91263
0.469714 5.74062 52.0198
4.5656 1.40694 7.28294
3.3433 4.16768 4.59423
1.15038 5.20893 20.7708
0.681741 0.892739 7.54052
1.42027 11.8598 53.668
5.39039 2.54926 7.96107
0.741386 3.51266 0.820497
1.32598 6.67679 67.1217
13.2627 24.0135 60.8496
1.93254 5.00256 0.501154
1.25949 5.95132 10.2158
1.4603 0.461993 4.94656
0.301448 5.67895 36.2821
6.38647 9.42497 55.9809
8.87948 8.59009 8.74132
3.58119 20.269 31.426
2.67581 2.77539 12.4304
3.94903 12.9154 55.3635
0.926964 0.275176 25.3888
0.369579 5.56553 12.1661
4.49553 3.63896 6.38571
0.696393 1.53801 16.9441
2.42056 6.03346 45.0385
0.377794 6.34944 8.20813
2.91467 3.64649 13.6878
1.97272 2.18526 13.6719
0.14213 0.0351311 20.9812
1.04363 16.6105 45.987
4.01462 2.99733 1.68551
0.935189 4.80451 30.1486
6.98484 6.77877 15.4221
0.520822 1.91594 33.5994
6.33163 11.0589 29.313
0.248315 1.83118 0.0925692
1.25652 4.90544 32.6926
3.53322 0.646669 23.1638
1.69274 4.04048 11.367
4.55589 4.28828 10.4296
0.894923 2.07185 43.2716
0.796916 7.43274 17.5654
2.8775 7.16445 8.85536
3.57121 11.1684 2.36841
2.42298 14.4874 29.84
1.47126 2.62918 29.4831
0.862019 14.9607 53.9855
7.36243 0.967139 5.20985
2.72754 8.22718 61.8436
8.68509 5.24476 3.96722
1.03545 0.365832 11.448
4.26039 2.83556 0.558642
2.29725 2.4144 11.4386
1.88163 2.12494 1.91221
2.04102 0.130852 4.81047
4.09905 10.516 45.4414
0.764349 9.07231 67.6601
11.9695 23.63 72.6827
1.09604 11.973 28.608
5.55367 3.42914 4.35481
1.12832 0.595969 19.4176
5.03322 3.96298 8.09142
2.16993 11.3667 35.6643
5.61028 10.3888 31.2325
0.122403 2.33179 7.25484
4.01246 7.06544 26.6156
0.617532 1.33745 3.18433
2.03495 4.22991 29.8349
1.55565 6.6782 24.0171
5.03622 6.55762 8.09454
1.7214 2.45948 22.3977
2.05664 0.889347 3.35129
2.82181 4.46036 21.0001
2.18389 8.9239 14.1213
0.361568 8.2948 76.1201
1.10933 4.54744 7.50062
0.0876062 7.34217 0.426772
1.0423 10.4659 37.6052
5.06472 0.661139 0.329357
2.00572 6.77447 43.745
1.15968 2.6673 14.8612
3.73886 4.36203 48.412
0.729289 10.2071 25.3126
4.2792 0.612749 6.7158
2.27796 0.453071 22.1238
4.67692 19.2911 30.0925
2.13528 0.147733 4.92608
2.18564 0.0311908 8.85182
4.23895 11.1462 41.0444
0.755696 2.31112 1.29974
2.41385 5.77403 46.8948
0.367504 5.59944 2.66862
2.16196 1.26 13.6602
1.16193 1.07391 6.23076
0.115449 7.36217 41.0959
7.82839 10.2485 22.8243
0.10443 2.98821 16.3297
4.65928 7.31613 11.5003
0.812854 0.0804548 0.271722
1.75781 0.975305 22.6752
7.16622 21.803 37.1843
0.0370081 4.15941 54.5287
1.08679 12.5579 72.4838
2.20815 1.32732 11.2255
0.0894879 2.44708 15.2132
2.32233 2.80282 22.7396
0.031437 0.984972 69.2501
1.59836 14.6378 4.18561
1.33104 2.23269 1.97207
1.36572 1.14968 4.38624
1.09362 3.48856 29.6662
0.609442 6.46005 56.1846
6.047 18.4592 31.8941
0.935816 3.34168 0.496997
0.831989 2.53794 28.3371
1.11178 12.7459 6.40892
2.24705 0.851361 4.85948
1.71169 16.5978 96.3788
5.24375 19.0836 13.9535
3.06957 1.7298 3.60165
1.50887 4.16565 32.3946
5.00601 3.89483 11.8315
0.0754887 15.3084 37.5752
5.21277 9.09087 43.6496
7.22849 0.733558 0.232002
1.02909 6.99057 65.8883
10.2021 7.12324 18.0643
3.33875 3.45923 6.27366
2.5023 2.50306 9.33543
0.378738 1.86119 3.81093
2.508 1.07189 3.13394
1.88679 0.174986 1.52709
0.602501 9.37929 55.8946
7.04492 2.58558 35.377
1.80852 10.6226 24.7201
5.32686 1.38205 32.5137
4.8656 1.91876 9.54268
2.35514 4.79861 14.1994
4.64472 1.91182 5.57841
1.91046 3.64342 13.1358
4.42615 4.33915 15.7348
1.85102 2.08523 3.08599
2.80906 5.20655 4.30274
0.639953 1.38754 12.1429
0.118776 0.819221 43.0659
2.90939 7.65556 4.29776
1.56502 10.0817 2.92326
0.538819 9.07586 14.9092
4.07002 8.09673 26.4969
3.51334 0.708003 0.991062
0.982881 4.95832 28.5876
2.05494 0.00969498 16.7095
0.816458 3.95371 14.6359
2.92796 5.14639 5.6493
2.36832 1.53545 22.636
5.53803 1.70463 3.69877
2.49528 5.04787 8.44402
1.46838 1.91402 36.0192
2.42015 5.88283 15.6986
0.0599404 2.35771 7.4522
0.50621 16.8953 35.8257
5.24848 0.249807 3.70007
2.20774 2.30039 24.5622
4.97771 0.0859533 22.6871
4.16125 2.61311 17.3325
5.11898 4.80581 0.182362
1.31783 3.11841 15.1241
4.64949 6.55006 29.1703
3.58188 7.99157 17.5767
0.76688 1.83577 9.56239
0.29978 1.93621 19.5348
2.53356 3.13203 1.02133
1.94383 0.183258 10.6653
0.869422 9.05315 28.4911
6.28404 14.6885 30.1278
1.4899 3.4474 53.9608
4.56115 5.14398 8.08734
3.32729 1.34288 33.6372
5.11724 1.59757 10.0608
3.64017 1.37352 10.3127
3.51544 6.08844 4.05724
0.800749 10.7244 61.5574
6.20284 6.9436 1.46986
2.3048 6.63475 18.7639
0.93525 0.303564 16.0909
0.889801 1.43366 3.86284
1.97941 0.803683 26.2028
4.93792 2.01717 3.63896
2.32392 1.00016 6.32213
2.3951 1.99486 17.0091
2.62744 11.1407 22.6223
0.74334 2.38358 29.0282
2.11806 3.75355 0.850965
1.06885 1.71215 61.0695
2.83074 16.1137 8.62398
2.1853 0.265713 11.4894
1.83453 4.88701 2.27805
2.17176 0.359104 6.87268
2.92947 1.11659 9.01965
3.60899 3.18693 5.92155
2.7902 12.3437 15.1247
0.31724 1.4377 40.5211
1.07442 14.4118 31.7578
0.793861 7.86555 9.0896
2.01804 5.60639 32.7792
6.56601 1.20106 10.4558
3.60669 8.58273 16.4854
0.0946588 1.03504 0.947558
1.99197 2.81631 23.3863
0.00902768 5.53723 17.9428
3.95913 7.54619 0.803222
1.55588 5.54768 11.0894
0.201005 15.1014 77.2167
8.30838 4.14053 38.3113
1.21937 7.04696 7.38273
3.25441 0.664399 2.26159
0.57762 2.45342 5.19974
2.43298 2.18176 29.2012
6.29631 3.64688 40.2039
5.76757 20.2175 37.8968
0.507876 1.86276 2.643
2.42064 1.1098 0.60635
1.18935 2.12595 11.6691
0.20653 5.74493 2.54731
2.40071 11.4399 47.4815
1.85102 4.24296 12.2984
2.75225 1.91289 32.3624
4.00949 0.635478 41.9281
5.91424 4.64995 11.3444
4.01787 5.65551 0.571803
1.45999 5.09727 2.76785
0.877313 6.57557 59.4377
0.58348 4.53546 0.600116
1.31948 0.136063 16.9886
0.0421594 6.80251 29.6489
3.85722 12.0069 43.001
4.08571 4.05289 6.04941
0.387697 4.06514 15.9061
3.94274 7.23859 18.58
3.34806 1.14995 22.7464
1.90993 3.72094 6.93754
0.262482 2.51782 10.517
1.37753 5.61872 8.47113
2.63642 2.45613 38.8663
7.18454 9.66485 19.0517
0.00894947 6.22811 45.7108
4.77406 6.34036 17.1012
0.107062 19.5783 43.4641
6.71359 2.12286 29.9929
2.4514 3.75275 69.6182
8.7247 9.13991 8.72694
0.528415 2.79706 4.71836
1.59006 9.37987 25.7058
4.88927 1.71514 23.945
4.69676 2.57923 5.56499
2.60841 5.08458 17.7187
0.520653 7.75937 7.52616
0.737834 5.37739 19.0917
4.91417 1.07904 0.371288
1.00867 0 0