# pn-170911/RbIIF-62-RbIIA-1280-1959.psd
# Power spectrum* (dif=0,1,2) (really just |FT|^2)
# NOTE: only the first half! (symmetric)
# weeks: 1280-1959
# 1947 clock-days, 64 excluded
# PSD: 1441
5892.27 0.215832 0.0106038
763027 15.7619 0.00541447
2.33291e+06 43.5077 0.00591794
406358 12.3235 0.00566425
313963 17.8543 0.00663529
122852 7.83341 0.00615088
77915.5 8.04457 0.0065375
54000.9 7.16057 0.00687428
42940.2 7.11263 0.00738155
31890.5 6.84645 0.00784553
26351.1 6.66591 0.008418
21341.4 6.26373 0.00867494
18217.4 6.59806 0.00942388
14923 6.29965 0.0102184
13210.3 6.51643 0.0110368
11130.7 6.15475 0.0120103
10239.7 6.45946 0.0132874
8819.18 6.20863 0.0134078
8007.61 6.19553 0.0144871
6771.18 5.88909 0.0152486
6246.9 6.10061 0.0164154
5717.74 6.03874 0.0178066
5208.65 6.27197 0.0195405
4707.79 6.00412 0.020584
4445.95 6.0245 0.0218201
4000.14 6.08129 0.0229633
3653.73 5.71483 0.0232708
3307.81 5.74831 0.0246665
3199.38 6.06339 0.027434
2979.29 6.06014 0.0287618
2848.32 5.90075 0.0306583
2575.01 5.72755 0.0322501
2393.91 5.92789 0.0338138
2268.26 6.02933 0.035868
2107.35 5.66564 0.0372276
2032.12 5.86758 0.0393983
1939.36 6.04013 0.0427135
1826.48 6.12582 0.0461905
1654.34 5.65969 0.0439702
1637.91 5.96186 0.0479088
1531.75 5.71524 0.0495358
1466.23 5.87504 0.0514987
1389.92 5.89878 0.0544158
1356.19 5.86354 0.0563862
1250.69 5.63352 0.0567166
1198.98 5.7026 0.0591456
1169.33 5.92133 0.0642686
1122.75 5.92496 0.0675945
1093.89 6.03166 0.0719678
1020.86 5.92322 0.0727832
977.135 5.76847 0.0740812
942.028 5.64948 0.074304
920.607 5.7589 0.0787515
856.214 5.586 0.0804232
882.636 6.16873 0.0905646
830.302 6.0116 0.0910191
782.92 5.83029 0.0915881
756.14 5.81712 0.0947995
724.883 5.62751 0.0963127
713.829 5.86666 0.102851
689.266 5.89803 0.106005
667.933 5.8386 0.107414
635.715 5.80984 0.111396
622.661 5.72252 0.112476
611.29 5.75282 0.11786
587.433 6.01659 0.126867
569.464 5.71066 0.122685
545.382 5.81088 0.128105
519.272 5.7321 0.130806
513.358 5.99519 0.141431
517.25 5.89223 0.143167
488.115 5.76821 0.144376
470.381 5.78073 0.149842
449.263 5.56623 0.146457
445.607 5.52014 0.149027
453.234 5.98479 0.16426
422.865 5.75087 0.162185
407.335 5.71031 0.164586
394.643 5.70427 0.17055
394.332 5.59824 0.17177
389.225 5.90494 0.184805
374.277 5.62598 0.178745
372.454 5.84945 0.192246
352.17 5.85742 0.197882
348.33 5.90256 0.201815
333.871 5.50515 0.19383
332.35 5.78138 0.208631
314.695 5.57719 0.206259
310.56 5.71815 0.21546
305.716 5.76094 0.220703
303.347 5.82045 0.232442
297.158 5.77968 0.232525
285.726 5.59834 0.230961
283.642 5.92978 0.250163
274.04 5.53123 0.23782
275.743 5.92209 0.258226
259.081 5.6041 0.252158
267.216 5.99708 0.2705
255.39 5.70329 0.263539
245.641 5.51965 0.262163
240.415 5.58628 0.272636
247.121 6.01019 0.294422
231.849 5.67833 0.28564
234.478 5.7383 0.2966
230.624 5.8358 0.305984
226.004 6.03584 0.322084
229.076 6.08232 0.329331
213.844 5.77217 0.316468
211.738 5.79894 0.324944
208.667 5.94358 0.338049
203.815 5.78193 0.335678
198.436 5.72267 0.341035
195.801 5.68552 0.340274
191.697 5.71765 0.351003
189.141 5.80914 0.362089
189.122 5.99929 0.383005
179.425 5.77904 0.37455
178.86 5.70218 0.370811
172.58 5.66634 0.376276
177.254 5.76168 0.394454
171.651 5.77388 0.394823
173.457 5.8565 0.412774
166.724 5.85727 0.419794
161.333 5.62799 0.406858
160.405 5.76323 0.425591
154.541 5.64368 0.420533
155.404 5.54954 0.418404
152.394 5.67959 0.441743
147.359 5.56443 0.435628
148.755 5.76567 0.458492
143.978 5.6906 0.460764
146.074 5.87622 0.480998
135.653 5.69795 0.471824
137.316 5.6555 0.478515
134.018 5.55018 0.474645
135.925 5.86704 0.512097
132.517 5.75297 0.509563
132.698 5.74225 0.518542
129.084 5.76477 0.520463
127.495 5.60497 0.518099
125.049 5.64692 0.529937
121.866 5.76775 0.548846
117.37 5.66175 0.541971
118.401 5.53635 0.542924
116.387 5.64479 0.554423
118.007 5.76515 0.5764
114.618 5.72036 0.583432
115.12 5.64323 0.580849
108.362 5.57202 0.578202
110.466 5.77398 0.609853
112.962 6.07202 0.643438
104.912 5.40226 0.583526
107.157 6.04508 0.66406
106.705 6.08586 0.678771
104.268 5.85542 0.662679
102.468 5.75508 0.655844
103.64 6.00203 0.692056
99.9891 5.79728 0.676598
102.891 5.98106 0.710014
96.2242 5.83889 0.706524
96.2176 5.85633 0.716587
95.5218 5.71781 0.70001
94.4987 5.87534 0.739041
93.8851 5.78585 0.729449
91.1962 5.61364 0.7202
92.5423 5.7132 0.727623
88.7705 5.8901 0.765516
86.4408 5.537 0.739536
88.0505 5.88742 0.787173
86.1527 5.84866 0.790868
84.6089 5.63523 0.773382
84.2796 5.84662 0.807192
82.5823 5.69748 0.798248
81.3577 5.6712 0.807413
80.1183 5.58253 0.804369
80.1541 5.72778 0.825019
79.8922 5.90539 0.858789
79.8151 5.89507 0.867714
77.775 5.57559 0.832664
77.0565 5.89379 0.896263
77.027 5.78584 0.890889
74.8924 5.61889 0.86655
75.0963 5.80267 0.909357
74.9363 5.85662 0.923215
72.9972 5.75958 0.922245
74.1018 5.91981 0.956234
71.6962 5.72654 0.939156
72.4467 6.00158 0.9832
70.8557 5.79821 0.969984
70.4658 5.78735 0.97098
68.4132 5.67663 0.969559
70.0156 5.93137 1.0188
67.6393 5.72816 0.996892
64.9683 5.53021 0.964903
67.2156 5.89122 1.04577
66.8373 6.18082 1.12314
65.356 5.70431 1.02416
65.713 6.10398 1.11986
65.9726 5.86669 1.081
62.4291 5.51507 1.02938
62.1383 5.69336 1.07527
59.8852 5.71719 1.09175
62.1241 5.63123 1.07652
60.2576 5.78496 1.12093
60.4133 5.79112 1.14571
59.4697 5.9435 1.17635
59.441 5.83277 1.15301
59.1488 6.05164 1.21275
58.4484 5.99018 1.20831
57.9877 5.91719 1.21956
54.6784 5.65954 1.1856
55.7264 5.824 1.21561
55.3513 5.77396 1.22002
53.3894 5.58452 1.19665
54.2856 5.94097 1.28358
54.2435 5.94575 1.28396
53.7337 5.58288 1.2188
53.4847 5.80441 1.28993
51.996 5.82776 1.29211
53.5082 6.03903 1.35829
51.9738 5.88746 1.33477
51.9652 5.91244 1.35715
51.6839 5.78936 1.32624
51.5936 5.88067 1.3764
50.6049 5.77959 1.35386
50.6167 6.00538 1.42172
49.8351 5.98102 1.43144
48.5245 6.02695 1.45475
47.8735 5.78982 1.42524
49.0274 6.03985 1.47863
47.3082 5.94997 1.47071
47.243 6.0363 1.50242
47.4171 5.86224 1.47431
45.8474 5.67086 1.44734
46.5107 5.87886 1.50783
46.6889 5.8092 1.49945
45.2763 5.854 1.51131
43.9563 5.7524 1.516
44.7711 5.79141 1.52219
43.1408 5.60793 1.50061
42.8048 5.7641 1.56232
43.5023 5.51725 1.49784
45.3865 6.09112 1.65994
43.7131 5.79841 1.58633
41.6771 5.72815 1.60653
43.1483 6.24388 1.74663
41.6592 5.88892 1.65649
39.5421 5.51966 1.57587
41.0087 5.98583 1.7106
42.3278 6.02685 1.74037
40.0309 5.6772 1.65626
40.9227 5.92297 1.7497
39.6431 5.81616 1.70953
39.1641 5.60414 1.68354
39.5965 5.94197 1.78925
40.0265 6.09662 1.8349
37.7648 5.76561 1.76835
37.4866 5.88291 1.81761
38.5901 6.00353 1.84102
38.5226 6.05072 1.87546
37.4619 5.80934 1.84818
38.0271 6.18425 1.92837
35.833 5.75487 1.83808
36.5494 5.91066 1.90186
35.9664 5.78141 1.8751
36.5828 5.90435 1.90978
37.0571 6.111 2.00409
35.274 5.77414 1.91983
35.6132 6.04903 2.00697
34.669 5.70592 1.91546
35.2139 6.00085 2.01636
33.6395 5.65506 1.94117
34.5973 5.8909 1.99263
33.7538 5.87964 2.07319
33.7905 5.81014 2.01203
33.4985 5.97186 2.07867
34.7009 6.25189 2.21468
32.3833 5.74701 2.05843
33.2782 5.79095 2.07401
33.2278 5.80671 2.08288
32.5077 5.72207 2.06906
31.6975 5.90466 2.16614
32.2404 5.75319 2.0911
31.88 6.04236 2.22043
31.5725 5.82408 2.17164
31.9962 6.21717 2.34979
31.8529 6.09191 2.2762
31.637 6.10765 2.31336
31.041 5.90795 2.24588
30.5941 6.10985 2.35192
30.1231 5.97712 2.33578
30.269 5.89353 2.31727
30.0232 5.76832 2.2587
29.8164 5.9058 2.32057
28.7826 5.84723 2.35641
30.1548 6.22848 2.47906
29.1373 5.83963 2.36934
29.3955 6.07664 2.50055
29.0123 6.14848 2.51171
28.7294 5.95429 2.42992
28.7563 6.00652 2.50611
27.4695 5.91394 2.45949
28.5032 5.97642 2.49758
28.3179 6.21807 2.62591
27.0203 5.71248 2.42394
28.3998 6.17697 2.62103
27.5591 6.08088 2.63825
26.9951 5.87648 2.55219
26.8489 5.99156 2.61305
26.086 5.55398 2.46088
26.0678 5.73233 2.52192
26.6835 5.94428 2.62232
26.4245 5.98805 2.6726
26.4647 6.0167 2.70815
25.95 5.82882 2.64811
26.7315 6.03372 2.71802
25.5513 5.97832 2.75172
25.1394 5.77711 2.66238
25.0212 5.64018 2.64934
25.4779 6.0219 2.82244
24.8893 5.77465 2.70888
26.2776 6.17332 2.88868
26.1379 6.36696 2.99725
24.3782 5.9224 2.84815
24.9928 6.01773 2.8561
23.3505 5.68635 2.80426
25.0428 6.22592 3.01217
24.148 5.9608 2.93611
24.0336 5.90296 2.91106
24.5557 6.13001 3.04303
23.8627 5.83105 2.88307
23.9129 6.09113 3.08252
23.6741 5.99739 3.02329
23.9927 5.87904 2.99016
23.4343 5.85563 2.95381
23.2683 5.98128 3.03847
22.8233 5.9749 3.04836
22.8787 6.06009 3.14986
23.1464 6.08951 3.17351
22.6638 6.14417 3.20582
22.6193 5.94983 3.15141
22.8163 6.11742 3.25756
22.047 6.04832 3.16951
22.4644 6.06892 3.24336
22.1645 6.11467 3.29593
22.0005 6.00401 3.20317
22.4208 6.14722 3.35297
21.4225 5.86972 3.21791
21.7702 6.05586 3.35561
21.2859 6.00387 3.29199
21.8619 6.21609 3.47285
21.224 5.95062 3.3729
21.6778 6.25028 3.47216
21.1076 6.14289 3.49154
21.4123 6.27622 3.51866
20.3514 5.93387 3.40881
20.6528 5.92803 3.37671
20.1288 5.98418 3.4848
20.324 6.00566 3.46857
20.4677 5.88849 3.44409
19.999 5.88783 3.46623
20.0731 6.11633 3.66701
20.2626 6.08495 3.53221
20.5656 5.91239 3.50013
20.291 6.15889 3.70026
19.5014 5.90614 3.54034
19.8873 6.16151 3.72004
19.4678 6.05097 3.69589
19.0944 6.02421 3.66421
19.0374 5.77691 3.58582
19.4417 6.01844 3.68365
18.8605 5.99652 3.82232
19.3136 5.98454 3.7028
18.5048 5.83434 3.65547
18.8354 5.98377 3.76129
18.7093 5.98997 3.84568
18.927 6.0423 3.81538
18.7224 5.92227 3.79022
18.4928 6.10058 3.90595
18.2935 6.12182 3.98172
18.3627 6.10996 3.95464
17.7768 5.61788 3.63686
17.9495 5.80805 3.84672
18.1582 6.17918 4.06292
17.7099 6.01986 3.97325
17.6987 5.95829 4.00406
17.9318 6.1228 4.07683
18.0033 6.26723 4.20166
17.5017 5.96328 3.97929
17.6881 6.15169 4.2378
17.8293 6.42111 4.40583
17.9252 6.10716 4.15856
17.4032 6.05554 4.19122
16.8828 6.03336 4.15514
17.1279 6.1465 4.29822
16.8633 6.09832 4.2701
16.9758 6.01295 4.19798
16.9263 6.05696 4.27404
17.1565 6.16522 4.35189
16.995 6.05407 4.31866
16.3416 6.07746 4.39924
16.1464 5.63561 4.02616
16.4442 5.91131 4.29201
16.3087 5.80405 4.14928
16.583 6.22922 4.52965
16.6426 6.36674 4.66357
16.1316 5.92538 4.36076
15.8239 5.98749 4.45354
15.2112 5.519 4.16065
15.9533 6.10628 4.53305
16.2542 6.27262 4.67336
16.0041 6.22842 4.73869
16.6489 6.39649 4.78343
15.7292 5.96435 4.56589
15.4311 6.02915 4.6044
15.7516 6.04901 4.61756
15.6201 6.15412 4.75093
15.8124 6.30266 4.91325
15.3677 6.17479 4.82561
15.2637 6.06711 4.73211
15.0954 5.79751 4.49084
15.2366 6.11709 4.80379
15.8276 6.52688 5.10326
15.3765 6.10039 4.86581
15.0616 6.25564 5.01664
14.8441 6.08964 4.89603
14.8224 6.02092 4.89772
15.1911 6.37295 5.12398
14.925 5.93032 4.7599
14.6724 5.97271 4.87563
14.6293 6.2329 5.07046
15.2048 6.34011 5.10015
14.72 6.07828 5.09528
14.3352 6.12387 5.10404
14.5254 6.29055 5.23173
14.4283 6.26725 5.25228
14.803 6.19184 5.24847
14.3109 5.89596 4.98334
14.4512 6.18328 5.14908
13.7921 6.16402 5.28278
14.079 6.16453 5.36259
14.0095 6.19364 5.2244
13.904 6.0607 5.2018
13.4967 6.0588 5.28319
13.6102 6.05299 5.2519
13.5636 5.84783 5.13149
13.983 6.3011 5.48341
13.531 5.92205 5.27934
13.9237 6.23767 5.35433
13.3089 6.05163 5.38853
13.7222 6.33009 5.62947
13.2765 6.03859 5.36077
13.5108 6.36346 5.73073
13.7149 6.16443 5.5103
13.0357 5.89162 5.38152
13.542 6.1253 5.51429
13.1063 6.01888 5.49947
13.3448 6.23431 5.6151
12.9314 6.1639 5.71863
13.0528 6.2774 5.72634
13.0113 6.08567 5.69515
12.9315 6.26283 5.83831
12.862 6.06687 5.68871
13.3655 6.2585 5.80743
12.7945 6.02278 5.70709
13.1474 6.29115 5.94577
12.6765 6.14504 5.89927
12.9452 6.30617 5.97842
12.1559 5.99775 5.6959
12.4806 6.24344 6.01045
12.3533 6.31086 6.08487
12.6797 6.25205 6.06645
12.4812 6.17393 6.12784
12.7182 6.22543 5.97249
12.3274 6.34401 6.22785
12.4579 6.13094 6.08125
12.2808 6.27452 6.18806
12.4794 6.11918 5.9433
11.9498 6.20544 6.23712
12.3254 6.24414 6.14802
11.9342 6.35109 6.34848
11.559 5.85457 6.07055
11.8587 6.07126 6.15592
12.156 6.24971 6.26731
11.6822 6.10162 6.25602
12.115 6.0584 6.15564
11.6699 6.09607 6.32812
12.1924 6.34691 6.35514
11.8725 6.13177 6.26477
11.713 6.30538 6.45517
11.7601 6.10669 6.47097
11.4016 6.1237 6.40089
11.4117 6.07626 6.44442
11.7145 6.19135 6.41686
11.4637 6.16998 6.43407
11.1393 6.00667 6.44006
11.3463 6.26194 6.61976
11.1695 6.12174 6.46051
11.4333 6.31541 6.7887
11.3641 6.20118 6.68825
10.9234 6.2091 6.67786
10.9972 5.95433 6.51368
11.3624 6.2337 6.77696
11.2082 6.43616 7.04061
10.8954 6.07252 6.57795
10.9773 6.1868 6.75713
10.8226 6.05597 6.63735
10.8969 6.12197 6.79337
11.09 6.26449 6.86924
10.7611 6.13586 6.71082
10.7992 6.1948 6.95891
10.8551 6.10657 6.84858
10.9289 6.19267 7.02192
10.7761 6.19994 6.94683
10.9439 6.27472 6.982
10.5021 6.18221 7.11275
10.6956 6.12192 7.03306
10.7517 6.41248 7.32524
10.4928 6.11578 7.09431
10.5508 6.31319 7.19706
10.4767 6.31049 7.33015
10.6567 6.34866 7.40014
10.3537 6.19759 7.09764
10.2044 6.13275 7.29351
10.5571 6.25041 7.21905
10.1012 6.10265 7.1785
10.2408 6.27791 7.56048
10.0875 6.39701 7.49191
10.0786 6.24617 7.55471
10.2447 6.05118 7.06975
10.4337 6.09851 7.19288
10.0732 6.27766 7.65069
10.3078 6.34124 7.53841
10.0975 6.16588 7.47315
10.0123 6.43266 7.87022
10.2153 6.46889 7.78945
9.83186 6.00221 7.32451
9.85072 6.30127 7.6337
9.73343 6.39705 7.99256
10.2468 6.59126 8.03303
9.85802 6.37658 7.95058
9.99008 6.12732 7.59408
9.90177 6.39063 7.83767
9.89547 6.54233 8.28312
10.1769 6.81337 8.52954
9.67979 6.26452 7.78124
9.56213 6.24479 7.89757
9.6047 6.44168 8.22983
9.8304 6.62909 8.22817
9.50799 6.2946 7.87373
9.30894 6.17221 8.11872
9.87961 6.59357 8.33051
9.23479 6.19152 7.95453
9.37046 6.50089 8.58694
9.61503 6.34908 8.01875
9.28054 6.05838 7.98381
9.50903 6.49013 8.48876
9.52476 6.54142 8.52168
9.3449 6.42712 8.43791
9.46103 6.58709 8.58835
9.58048 6.49002 8.43201
9.1213 6.24627 8.27333
9.29347 6.31463 8.43401
9.23512 6.18222 8.26857
9.27404 6.44634 8.66745
9.20767 6.43749 8.60479
9.48468 6.64028 8.79143
9.17019 6.61201 8.74016
9.02137 6.35419 8.67893
8.93802 6.45936 8.83093
9.07756 6.5104 8.87245
9.19547 6.44789 8.7134
9.14308 6.51729 8.89932
9.18752 6.53847 8.9757
9.18953 6.94141 9.64587
9.28796 6.60914 8.94407
9.21367 6.54784 9.1876
8.81697 6.60811 9.27688
9.20267 6.68484 9.2269
9.0215 6.46718 9.01873
8.94877 6.68031 9.20421
8.64055 6.54276 9.35976
8.77424 6.41727 8.98993
8.38143 6.07419 8.86072
8.79781 6.39173 9.17123
8.85877 6.7821 9.41746
8.75306 6.46139 9.0727
8.61033 6.50014 9.11258
8.36744 6.33925 9.17623
8.51148 6.36267 9.23975
8.73624 6.63446 9.56336
8.59243 6.54311 9.34972
8.45235 6.47922 9.3
8.28484 6.26833 9.1345
8.19193 6.27132 9.28746
8.05603 6.13009 9.01617
8.42907 6.5153 9.52408
8.23431 6.37758 9.25757
8.27154 6.42007 9.48428
8.28674 6.43337 9.60842
8.21886 6.12895 9.05588
8.19809 6.37608 9.59794
8.10702 6.32558 9.34666
8.00016 6.14405 9.23543
8.14595 6.33901 9.54693
8.37382 6.58503 9.86854
8.13445 6.38426 9.50442
8.15974 6.36232 9.51525
8.25615 6.37437 9.67606
8.18369 6.65193 10.0833
7.83483 6.17769 9.49016
7.90458 6.24912 9.67965
8.03081 6.32728 9.66578
8.08925 6.33283 9.83334
8.07371 6.36967 9.76711
8.24936 6.78016 10.3054
7.92393 6.23652 9.95436
8.12339 6.55692 10.0431
8.02334 6.45885 10.2094
7.96365 6.66686 10.2611
7.82922 6.45945 10.1059
7.76511 6.14152 9.76533
7.82985 6.459 10.267
7.57723 6.07384 9.69139
7.97245 6.47372 10.2776
7.79446 6.36976 9.92681
7.74602 6.37085 9.76511
7.67633 6.52112 10.5157
7.39946 6.45419 10.4279
7.72039 6.49552 10.4331
7.66835 6.38165 10.3442
7.55525 6.52717 10.684
7.64195 6.43129 10.2636
7.68969 6.49109 10.7231
7.68126 6.55855 10.6494
7.43255 6.42821 10.48
7.41655 6.3379 10.4205
7.37372 6.13381 10.204
7.48409 6.32063 10.4156
7.48667 6.55282 10.8265
7.44219 6.33476 10.5689
7.72798 6.64752 10.944
7.51316 6.44654 10.7458
7.54594 6.31795 10.4235
7.26478 6.16946 10.4927
7.39806 6.58511 10.9781
7.34528 6.46771 10.9232
7.46097 6.55425 10.9347
7.55488 6.76643 11.2704
7.27762 6.27504 10.6869
7.25222 6.40688 10.9423
7.20925 6.41556 10.7878
7.53216 6.72547 11.4262
7.20665 6.46641 10.939
7.18205 6.54693 11.3158
7.03946 6.29807 10.7483
6.861 6.24467 10.8594
7.14285 6.24091 10.7661
7.07018 6.52564 11.1788
7.07143 6.30209 11.1761
7.21758 6.67643 11.5318
6.88244 6.48595 11.3033
7.13365 6.58203 11.6659
7.24706 6.8078 11.9116
7.08484 6.6157 11.4692
7.10564 6.88872 12.3289
7.2235 6.68685 11.4478
6.96979 6.58501 11.8311
7.05127 6.58154 11.8541
7.16456 6.83291 11.8251
6.81235 6.29356 11.3516
7.02794 6.35302 11.3217
7.01341 6.52455 11.6447
6.9961 6.6845 11.9986
6.89735 6.39734 11.3637
6.71345 6.30954 11.8055
7.05116 6.6858 11.8208
6.97919 6.55968 11.7028
6.8112 6.44159 11.7419
6.75889 6.54082 11.7603
6.80728 6.46611 11.5865
6.74807 6.55218 12.2138
6.6725 6.36966 11.8856
6.75929 6.76953 12.4368
6.65064 6.66749 12.3409
6.70126 6.65464 12.1009
6.44464 6.4588 12.1681
7.01891 6.73864 12.4168
6.75348 6.59399 12.1732
6.45311 6.28541 11.7747
6.53622 6.50429 12.2137
6.511 6.60849 12.7324
6.75642 6.53153 12.1438
6.4671 6.4294 12.4079
6.52745 6.69392 12.7037
6.70308 6.61338 12.2879
6.57117 6.52504 12.3113
6.53913 6.43652 12.4144
6.59174 6.63849 12.4062
6.51332 6.64156 12.7794
6.3624 6.24068 12.4141
6.67877 6.69253 12.5725
6.4954 6.42781 12.3308
6.5773 6.65154 12.7655
6.42454 6.62383 12.5827
6.44721 6.72965 13.0815
6.41306 6.30592 12.3268
6.29327 6.36196 12.4295
6.36909 6.68954 12.9631
6.38019 6.62523 12.7339
6.2963 6.32552 12.7718
6.57365 7.04594 13.4738
6.34998 6.63479 13.174
6.40379 6.79171 13.4887
6.48497 6.67103 13.0689
6.22423 6.25042 12.5367
6.2932 6.42092 12.4927
6.20566 6.86064 13.5445
6.35016 6.59952 13.1774
6.25581 6.55929 13.0303
6.17716 6.50586 13.0246
6.20919 6.62747 13.4325
6.19465 6.4026 12.8222
6.16951 6.48256 13.3056
6.27267 6.67442 13.3298
6.31171 6.82504 13.6123
6.0696 6.64076 13.5789
6.26448 6.79109 13.7317
6.33339 6.7904 13.3604
5.99764 6.41922 13.1817
6.18799 6.76976 13.7935
6.08531 6.87597 14.1378
6.09995 6.60573 13.4157
6.06804 6.61 13.632
5.76913 6.3507 13.1985
5.92371 6.28213 12.9961
6.05251 6.73788 13.8256
6.0419 6.74647 14.1917
6.04016 6.86247 13.9835
5.88533 6.51398 13.7609
5.85154 6.52856 13.8235
5.95319 6.98349 14.3444
6.05571 6.47808 13.7982
5.89531 6.71553 14.302
6.03474 6.82235 13.7921
5.75099 6.37736 13.5961
5.91146 6.68737 14.1953
5.93648 6.61699 14.0398
5.93506 6.5673 14.0008
5.75032 6.73128 14.6001
5.97922 6.57376 13.6522
5.81584 6.75215 14.3946
5.81154 6.81207 15.0993
5.75859 6.48025 13.843
5.89917 6.54475 13.7923
5.70663 6.40921 14.2292
5.93992 6.88383 14.4481
5.62438 6.46838 14.1195
5.90974 7.03331 15.1216
5.74759 6.39448 14.1487
5.91302 7.0657 14.968
5.76478 6.56869 14.6374
5.62428 6.41306 14.0956
5.67241 6.5652 14.177
5.6064 6.35694 14.1159
5.55696 6.40004 14.1555
5.7088 6.59293 14.2663
5.68737 6.59091 14.6169
5.67206 6.63421 14.6793
5.82606 6.73593 15.0569
5.88422 6.87964 15.2354
5.88405 6.72462 14.4679
5.63449 6.61383 15.1094
5.71851 6.66525 14.764
5.60261 6.75623 14.8021
5.45112 6.63705 15.148
5.6099 6.73544 15.3232
5.5965 6.77823 15.4905
5.62664 6.74623 14.9297
5.28096 6.38845 14.3323
5.47245 6.45961 14.6834
5.40915 6.49461 15.2032
5.66281 6.67882 15.1792
5.65848 6.72853 15.3406
5.56009 6.8426 15.2628
5.49582 6.89633 15.9419
5.49289 6.73755 15.6011
5.56185 6.78337 15.2431
5.46975 6.66503 15.3177
5.57753 7.04041 15.8719
5.44237 6.51231 14.7534
5.38157 6.64395 15.695
5.64583 6.88522 15.7601
5.64792 6.81306 15.3475
5.37844 6.76171 16.0486
5.6047 6.94934 15.8109
5.58026 6.86219 15.8783
5.4727 6.7952 15.6906
5.40433 6.90962 16.2789
5.49131 6.88601 16.3031
5.45607 6.81832 15.818
5.50376 7.03689 16.6592
5.33988 7.01922 16.5586
5.25869 6.66915 15.8983
5.2965 6.83806 16.0674
5.38227 6.45712 15.2613
5.25977 6.65034 16.0611
5.25951 6.63708 15.8618
5.40485 7.04763 16.8393
5.23226 6.75421 16.0943
5.22505 6.9433 16.7025
5.19083 6.56049 16.0633
5.4453 7.1214 17.001
5.27961 6.71814 15.97
5.28433 6.85169 16.7803
5.33677 6.70324 16.1057
5.3875 6.89324 16.543
5.21725 6.91939 16.291
5.34587 6.71319 16.4909
5.48274 6.88794 16.2088
4.95967 6.54986 16.2946
5.35574 7.05877 16.9092
5.22014 6.90138 17.0114
5.2393 7.20131 17.6334
5.35833 7.0986 17.168
5.17153 7.04454 17.1773
5.21423 6.90425 17.2372
5.35322 6.93453 16.8188
5.16957 6.92355 17.0334
5.02084 6.6391 16.2831
4.95625 6.51406 16.6407
5.10711 6.85995 16.7298
5.02729 6.82779 17.276
5.27348 6.72435 16.9557
5.2196 7.38089 17.2492
5.00697 6.75635 17.2093
5.0084 6.81871 17.245
5.16615 6.74706 17.2451
5.07341 7.01306 17.4981
5.14313 6.8894 17.0527
4.97995 6.6262 17.0128
5.14094 6.81739 17.2104
4.99739 6.94629 17.1558
4.98131 6.75107 17.0211
4.91067 6.92052 18.0406
5.18238 6.97745 17.1068
4.89756 6.64225 17.5184
5.12556 6.94681 17.7341
5.10644 7.01272 18.3873
5.11776 6.96794 17.6926
5.11899 7.0337 18.6502
5.54708 8.17423 20.8423
5.32241 7.89933 20.3855
5.37333 8.08519 20.5216
5.33134 8.15716 21.2686
5.44609 8.07128 21.1231
5.29466 7.9802 20.612
5.34944 8.27087 21.7043
5.63773 8.54382 22.1988
5.61232 8.45409 21.6775
5.3862 8.36386 21.0801
5.38708 8.61288 22.642
5.63271 8.68288 22.9414
5.63303 8.73181 22.0406
5.28014 7.87922 20.8348
5.27955 8.06774 20.8442
5.26286 7.60197 19.5567
5.19407 7.55824 19.5731
5.01142 7.48697 19.6271
4.97618 7.50892 20.1807
5.03354 7.31218 18.9013
4.98328 7.31654 18.8338
4.74235 7.05728 19.7931
5.14513 7.47364 19.6503
4.84506 7.10208 19.2111
4.9944 7.22763 18.9494
4.82875 7.34724 19.444
4.79004 7.29616 19.3439
4.87765 7.07821 19.3657
4.86416 6.98137 18.9423
4.8331 7.34387 20.0115
4.95478 7.30937 18.8924
4.62351 6.85093 18.9612
4.79499 6.93826 18.8472
4.86929 7.25369 19.2132
4.71506 6.78612 19.304
4.92947 7.31079 19.5243
4.72813 7.00637 19.1038
4.827 7.06323 18.8413
4.70081 7.10222 19.5317
4.72641 6.96426 18.9928
4.68689 7.18217 19.1922
4.62838 6.82525 18.9044
4.73241 7.37808 19.8489
4.60269 7.10777 19.5243
4.70239 7.16391 19.8284
4.7259 6.79841 18.5557
4.62506 6.87154 19.1159
4.60251 6.88422 19.4335
4.59418 6.93535 19.611
4.73471 7.11494 19.6006
4.71653 7.12409 19.101
4.41702 6.88224 18.9275
4.62248 7.02365 19.766
4.76637 7.1274 19.7852
4.6662 7.04345 19.8504
4.72665 7.05376 18.7817
4.62213 7.22217 20.939
4.50395 7.00285 20.1659
4.62536 7.14215 19.6503
4.54164 7.38914 20.7449
4.65505 7.04076 19.8129
4.65569 7.09202 19.6034
4.50332 7.05353 19.7115
4.37474 6.65317 18.732
4.5912 7.13762 20.5299
4.67277 7.09772 20.1271
4.56558 6.81604 18.7835
4.48003 6.99497 19.9512
4.45196 7.00997 19.5713
4.41197 6.64998 19.5348
4.63 7.21954 20.4306
4.38118 6.81198 19.6173
4.61918 7.09826 20.3129
4.5289 6.95948 19.8375
4.49094 6.93279 20.1676
4.60304 7.14345 20.3472
4.46194 7.27492 21.2687
4.51824 7.08547 20.0715
4.51165 7.25887 20.7583
4.45789 7.19052 20.873
4.53284 7.35166 21.162
4.36221 7.02607 21.003
4.69754 7.40132 20.696
4.42445 6.8602 19.6869
4.38814 7.00672 21.0301
4.48554 7.32145 21.1249
4.47422 7.28958 20.9393
4.30071 6.8712 20.3066
4.34648 6.96968 20.6385
4.3941 7.22789 21.6277
4.52377 7.17561 21.4114
4.56305 7.29603 20.4853
4.41033 7.0898 20.271
4.32519 7.14165 21.1797
4.36795 7.19272 21.1575
4.30552 6.96 20.14
4.35736 6.96756 20.8512
4.37569 7.00662 20.9436
4.21845 6.86962 20.2879
4.32284 6.94528 21.0896
4.37448 7.26943 20.8086
4.32497 6.8588 20.2299
4.25932 6.56924 20.5807
4.51761 7.31522 21.2974
4.28367 7.1034 20.97
4.3116 7.02614 21.6197
4.34704 7.14434 20.9393
4.37196 7.5023 21.9246
4.31324 7.32346 21.7131
4.30321 7.14912 21.4116
4.36319 6.89303 21.41
4.2854 7.2006 21.76
4.47598 7.14315 21.6482
4.34432 7.17606 22.0405
4.44746 7.00111 21.0245
4.33085 7.23723 22.0358
4.32112 6.88863 20.5661
4.26637 7.1079 21.6263
4.29039 7.40313 22.0836
4.36129 7.27798 22.4325
4.20625 7.08042 21.8547
4.33189 7.10377 21.5499
4.33928 7.23124 22.2557
4.27723 6.99545 21.5493
4.26749 7.15308 21.244
4.11177 7.3145 22.7456
4.37078 7.43436 21.9732
4.17869 7.39722 22.7196
4.23875 7.25165 22.4056
4.41687 7.12327 21.881
4.20339 7.17224 21.8315
4.15312 7.00413 21.3257
4.12166 7.01842 21.7428
4.18632 7.03409 21.4947
4.24046 7.19843 22.9768
4.36056 7.21963 22.4024
4.21699 7.21684 22.1625
4.24653 7.40767 22.6609
4.25083 7.45188 23.0884
4.20911 6.95403 22.4805
4.28254 7.47989 23.1278
4.20495 7.24343 22.4954
4.20857 7.09587 22.5281
4.12606 7.04292 21.9818
4.07467 7.22945 22.8961
4.29724 7.41923 22.7302
4.1354 7.23413 22.9238
4.21368 7.24081 22.542
4.24505 7.21076 22.3364
4.11795 7.35463 23.4476
4.35554 7.09403 21.7079
4.17889 7.37486 23.1538
4.13738 6.93515 21.8466
4.05232 7.15325 23.1628
4.1879 7.23696 22.2945
4.17079 7.24389 22.5208
4.08084 7.2906 24.137
4.3391 7.44566 23.2239
4.1146 7.58371 23.7789
4.22021 7.65085 23.8959
4.16708 7.30278 24.8345
4.34719 7.33053 22.6695
4.0771 7.22257 23.4268
4.19263 7.27035 22.9169
4.1319 7.36326 23.4653
4.02575 7.14312 23.3273
4.14462 7.27716 23.0885
4.00674 7.104 23.3975
4.21943 7.42113 23.8355
4.18329 7.40874 23.3198
3.97507 7.53891 24.6981
4.26054 7.75963 24.0743
4.06247 7.3823 24.3646
4.15815 7.43165 23.8394
4.08299 7.46452 24.1394
4.12499 7.45269 23.8297
4.00253 7.22287 23.2989
4.08582 6.88671 23.1386
4.16087 7.4773 24.0037
4.04637 7.20295 24.0882
4.16209 7.55986 24.0641
4.12071 7.26962 23.9819
4.01237 7.12777 23.5709
4.08191 7.36479 23.8772
4.05538 7.39203 24.3232
4.04943 7.35979 23.6981
3.99411 6.83297 22.1473
3.92105 7.35201 23.9851
4.08218 7.29983 23.3008
3.8608 7.09292 24.0108
4.12575 6.98568 22.9611
3.96686 7.04869 23.8346
4.10377 7.48385 23.839
3.9889 7.30906 24.1431
3.96872 7.45264 24.3465
4.02351 7.27045 24.2785
3.96475 7.22466 23.6798
4.0292 7.4605 24.0412
3.92891 7.17805 24.4334
3.94797 7.49877 24.8995
4.10435 7.30863 24.818
4.1207 7.63225 24.318
3.8787 7.41551 24.3126
3.94657 7.41486 25.0752
4.15887 7.51964 25.2572
3.94901 7.346 24.6862
3.9526 7.41224 25.0915
4.10301 7.56626 24.8054
3.90881 7.38475 24.3737
3.77854 7.22136 24.281
3.91811 7.22728 24.9469
4.00378 7.46829 24.4357
3.80874 7.31284 24.9361
3.93997 7.00381 22.7395
3.78131 7.22456 24.5586
3.75834 7.2669 24.243
3.89925 7.08144 24.7138
3.98646 7.82361 26.0454
4.02049 7.18111 24.8208
3.98317 7.64012 25.2364
4.00693 7.23695 24.9054
3.91497 7.63861 25.7103
3.91532 7.67876 26.4871
3.99137 7.26529 24.2676
3.78683 7.27421 24.9855
3.86903 7.21537 24.3283
3.74327 7.25434 24.7975
3.75434 7.10818 24.7021
3.82037 7.21557 24.674
3.84589 7.49873 24.7148
3.74093 7.16072 25.4586
3.93127 7.45913 25.4683
3.91552 7.29505 24.4213
3.87331 7.30143 26.0305
3.94485 7.65294 25.3769
3.77264 7.09933 24.7833
3.92508 7.1826 24.7369
3.80436 7.38222 25.5816
3.94304 7.39308 25.6984
4.0822 7.61098 25.3985
3.84696 7.43141 25.7301
3.80756 7.30615 25.3576
3.84073 7.284 25.0679
3.85473 7.4544 25.4794
3.78759 7.38351 25.7048
3.87126 7.52967 25.5674
3.90003 7.58048 25.9195
3.75444 7.03567 25.3638
3.82849 7.53775 26.1411
3.89451 7.04713 25.0321
3.81707 7.22741 24.445
3.62796 7.24046 25.4585
3.74901 7.204 25.5701
3.77743 7.37494 25.8148
3.82562 7.57442 26.2388
3.8498 7.58476 26.3491
3.88872 7.63648 26.6089
3.77725 7.18576 25.0453
3.73082 7.52496 25.8533
3.74555 7.32186 26.0852
3.7192 7.47681 25.6854
3.85909 7.41629 27.0191
3.92981 7.53823 26.1198
3.80392 7.44593 25.8765
3.71823 7.60944 26.2507
3.77763 7.37802 26.7345
3.79018 7.41905 25.8444
3.79999 7.1419 26.2175
3.88695 7.45311 25.5455
3.66219 7.19925 25.4245
3.76816 7.28252 25.5079
3.77457 7.36885 26.1111
3.75402 7.33713 25.7475
3.65358 7.25113 25.9924
3.70719 7.40404 26.1181
3.61283 7.56739 27.494
3.82874 7.74933 27.4268
3.78891 7.76925 27.1443
3.6623 7.31386 26.9711
3.77019 7.58962 26.2
3.72408 7.55664 27.2653
3.82345 7.25363 26.0829
3.76898 7.67406 26.7603
3.6502 7.31491 26.0253
3.6734 7.43965 26.8493
3.73524 7.34563 26.2492
3.81363 7.6351 27.7695
3.7464 7.69644 27.3647
3.75635 7.60116 27.9741
3.90741 7.86875 27.1182
3.76813 7.40519 27.4765
3.81497 7.96576 29.5399
3.78288 7.86889 27.0391
3.75306 7.71947 28.4257
3.87793 7.74133 28.0056
3.95539 8.10307 29.0777
3.85473 8.28301 29.2714
3.79621 7.78995 27.9996
3.85865 8.21056 29.7114
3.93855 8.23542 29.9128
3.86809 8.07503 27.917
3.82323 7.71758 29.4152
3.91685 8.4553 30.4066
4.03306 8.09653 29.4891
3.88883 8.02991 29.5364
3.83427 7.67434 27.2465
3.7061 7.77653 28.2925
3.77656 7.82921 28.4278
3.72622 7.95205 28.3146
3.71403 7.77613 28.0285
3.73906 7.50377 27.0793
3.62666 7.62884 28.018
3.75662 7.56179 28.2962
3.69372 7.72517 28.4262
3.86476 7.7987 27.2885
3.7135 7.57752 27.9242
3.71459 7.60977 27.0755
3.72078 7.74352 28.5354
3.60009 7.66212 28.215
3.7003 7.69164 28.3865
3.73833 7.47788 27.1707
3.70356 7.46836 27.3999
3.672 7.72275 28.9995
3.68082 7.54156 28.2874
3.85936 7.64333 26.5459
3.49865 7.36522 28.1893
3.66202 7.41905 26.3793
3.39942 7.29471 27.6198
3.69789 7.64644 27.7285
3.61547 7.4594 27.268
3.61207 7.48553 28.0156
3.62298 7.52955 27.3396
3.62424 7.45915 28.3735
3.66479 7.52724 26.8285
3.57671 7.49503 27.8906
3.62723 7.79101 28.6059
3.61065 7.56647 27.7897
3.6043 7.38939 27.5826
3.70511 7.45958 28.1208
3.57475 7.89174 29.4305
3.64486 7.62184 28.4777
3.64943 7.52001 28.965
3.68743 7.87073 28.2547
3.66351 7.66865 27.7678
3.66308 7.54202 28.2227
3.68628 7.53755 27.6015
3.59618 7.15764 27.815
3.66694 7.72859 28.3029
3.51848 7.42181 28.6108
3.67761 7.82336 28.6847
3.64087 7.55857 28.1649
3.52871 7.86302 29.4829
3.72425 7.55945 27.7468
3.5846 7.53005 27.312
3.52638 7.33394 27.3726
3.51778 7.43827 27.9142
3.53386 7.352 27.6343
3.51156 7.56583 29.0047
3.57153 7.7657 28.2239
3.51875 7.39781 28.5386
3.57838 7.64681 28.5621
3.52555 7.76215 27.9489
3.48279 7.3466 29.0619
3.55064 7.60689 27.5443
3.49876 7.53042 27.7436
3.48628 7.5559 28.8089
3.4832 7.51869 28.0743
3.46535 7.45777 28.8001
3.64086 7.57855 28.1284
3.53845 7.52381 29.1705
3.62017 7.3822 27.5889
3.52047 7.51728 28.3257
3.55813 7.24163 28.2428
3.54396 7.53339 28.8592
3.57479 7.45816 27.6605
3.57196 7.41419 28.3993
3.54076 7.69465 29.3032
3.58367 7.49292 27.8591
3.39323 7.59328 28.3199
3.45671 7.37963 28.1925
3.52434 7.49374 28.4173
3.56007 7.40856 27.1225
3.50794 7.05155 28.1117
3.47303 7.73241 28.5735
3.50073 7.39652 27.6677
3.47486 7.33658 28.3001
3.46026 7.61479 28.8885
3.555 7.38907 27.3825
3.43215 7.25793 28.5474
3.647 7.62865 29.3925
3.52692 7.46859 28.7925
3.44723 7.61703 29.0025
3.61674 7.65528 28.9846
3.50063 7.34718 29.683
3.64044 7.57593 28.1039
3.43441 7.3835 27.9337
3.49185 7.28736 27.9695
3.44987 7.47644 29.6151
3.57761 7.5575 29.2983
3.65059 7.75078 28.3443
3.46605 7.42373 28.8461
3.40474 7.27243 27.8758
3.42085 7.41782 28.5917
3.47111 7.62139 29.239
3.48625 7.4221 27.2705
3.30966 7.11448 27.5088
3.36104 7.28151 27.7512
3.41723 7.19262 29.2706
3.48951 7.71938 29.4557
3.61596 7.74615 29.3533
3.47201 7.36543 28.887
3.47978 7.55757 28.2511
3.48497 7.74881 29.3312
3.44331 7.61687 28.4728
3.44313 7.55746 28.8399
3.60623 7.36783 29.0198
3.39392 7.57516 29.6146
3.46052 7.29077 28.5714
3.43638 7.17385 27.7435
3.45396 7.50231 28.1669
3.41059 7.55086 28.1149
3.37506 6.98863 28.045
3.47522 7.41086 29.2696
3.48866 7.45401 27.998
3.46978 7.39561 28.8246
3.47329 7.13912 28.5336
3.44427 7.45578 28.9731
3.40854 7.27187 27.9496
3.37657 7.39869 28.1249
3.36595 7.37374 28.6182
3.50381 7.63011 29.1271
3.39737 7.71239 30.8314
3.53932 7.3684 29.0798
3.44746 7.41757 28.7366
3.38772 7.24831 28.5558
3.41811 7.60618 28.9922
3.39688 7.42883 29.4261
3.51129 7.33829 28.2772
3.47838 7.69005 29.9161
3.46106 7.58608 28.8254
3.37763 7.39221 28.9063
3.46665 7.72745 30.4436
3.46812 7.30648 28.7771
3.44001 7.59466 28.3674
3.38839 7.6098 29.2709
3.41632 7.50825 30.1469
3.36131 7.35545 29.1787
3.42936 7.4466 29.3009
3.34499 7.5554 28.4456
3.29528 7.38822 29.8107
3.48486 7.66355 28.6575
3.36459 7.41762 29.7724
3.41103 7.44826 28.8047
3.36934 7.17513 28.6059
3.52273 7.58843 30.1667
3.51408 7.30885 28.5602
3.48085 7.50414 29.0546
3.43115 7.94979 30.9154
3.55831 7.4082 29.4707
3.44911 7.41721 29.3952
3.43881 7.59754 29.4284
3.48386 7.59493 28.6262
3.36694 7.74771 29.2097
3.35341 7.2232 29.2896
3.44812 7.56197 29.805
3.37335 7.60018 29.8913
3.42275 7.39458 28.7456
3.3512 7.46472 28.6326
3.33432 7.40376 29.2833
3.35582 7.46512 28.9607
3.33078 7.43423 29.9061
3.50725 7.47192 28.9537
3.47979 7.23076 28.8487
3.35587 7.65759 30.3337
3.49662 7.4546 29.7257
3.50212 7.56868 29.6351
3.32626 7.61314 30.2703
3.49172 7.24248 29.1456
3.41547 7.72002 28.8857
3.38141 7.52002 30.5823
3.47721 7.80422 29.51
3.42347 7.49679 30.3805
3.40068 7.4823 29.8678
3.40203 7.85508 31.2652
3.4023 7.65454 30.5287
3.42388 7.38525 28.4567
3.2065 7.13442 29.4185
3.3517 7.63553 28.775
3.27035 7.15852 28.9615
3.42189 7.51821 30.0345
3.32957 7.73946 30.394
3.50217 7.53551 29.3411
3.40153 7.29033 29.9664
3.39064 7.62022 30.0944
3.38968 7.63285 29.5681
3.37626 7.76307 30.7211
3.33422 7.77883 30.5626
3.50159 7.56731 30.3445
3.50321 7.53035 29.4695
3.35889 7.38737 30.0928
3.35669 7.91622 30.8492
3.42785 7.63425 29.2039
3.3618 7.41619 30.2158
3.48028 7.65969 30.3349
3.48263 7.44657 29.3873
3.32765 7.64225 30.3436
3.43526 7.60759 29.8814
3.39052 7.24304 29.3281
3.32206 7.5567 30.0918
3.38051 7.59014 28.6717
3.29106 7.19418 30.4498
3.38118 7.60049 29.7175
3.3459 7.48326 28.9445
3.20104 7.38787 30.3035
3.27627 7.29339 29.9091
3.42529 7.58194 28.5691
3.26932 7.38956 29.7648
3.37772 7.5011 30.2254
3.41168 7.65126 30.064
3.28445 7.54589 30.1868
3.29954 7.51855 30.8266
3.39897 7.88799 30.5613
3.39364 7.56653 30.3852
3.398 7.69799 30.6514
3.38908 7.45355 30.0351
3.38443 7.63255 29.5
3.31111 7.46569 29.3878
3.18668 7.54499 30.6941
3.41046 7.56001 29.4754
3.41115 7.23895 29.0712
3.31666 7.59842 30.3028
3.44134 7.73679 30.1619
3.35594 7.73503 30.8468
3.37619 7.80073 30.8767
3.45217 7.74535 30.3317
3.52666 7.46888 30.5931
3.38127 7.63373 29.9698
3.33998 7.64361 29.5885
3.27585 7.66074 30.2722
3.42464 7.69809 31.9589
3.38689 7.76938 31.0621
3.37597 7.77182 31.2866
3.36481 7.53084 30.1688
3.31494 7.72191 31.0086
3.39353 7.93447 31.4621
3.44459 8.49097 32.9701
3.49067 8.08807 32.3734
3.53199 8.42723 32.555
3.52766 7.81166 32.5133
3.48363 7.76666 30.6041
3.34503 7.76337 31.025
3.40798 8.0901 31.9596
3.46527 7.83544 31.1467
3.42484 7.62713 31.4031
3.39518 7.72568 31.3784
3.51294 7.91243 31.1498
3.38524 7.97964 31.3114
3.48562 7.57199 30.6251
3.38497 7.296 29.7267
3.34984 7.93385 31.1638
3.43582 7.72936 29.3602
3.34086 7.51477 31.0179
3.44159 7.5913 29.1473
3.23375 7.39868 30.8587
3.40087 7.78274 32.0944
3.52918 7.98133 30.892
3.39908 7.78302 31.2324
3.44847 7.48214 30.144
3.38819 7.81947 31.155
3.47031 7.55695 30.1506
3.39992 7.66734 30.3594
3.44597 7.84746 30.5604
3.41236 7.5959 31.3571
3.38237 8.02132 32.6485
3.51403 7.6728 30.1742
3.35269 7.70543 31.6562
3.43387 7.94676 30.8503
3.46077 8.11961 31.8779
3.47644 7.68891 30.91
3.41521 8.0053 32.3896
3.36469 8.05682 31.1037
3.50217 7.97198 31.415
3.35743 7.52186 33.1224
3.59911 8.33756 31.5713
3.39187 8.05891 33.1543
3.52024 8.14389 33.2138
3.50888 8.54208 34.1763
3.64038 9.0084 35.3991
3.69192 8.26917 32.6714
3.55245 0 0