# pn-170911/RbIIA-av-TWTF-1280-1959.psd
# Power spectrum* (dif=0,1,2) (really just |FT|^2)
# NOTE: only the first half! (symmetric)
# weeks: 1280-1959
# 47 clock-days, 15 excluded
# PSD: 1441
6243.6 0.214086 0.00854502
316632 7.43047 0.00300629
2.31128e+06 48.2052 0.00356531
575640 15.6848 0.0039841
174686 16.5986 0.00496038
117564 9.03985 0.0036585
91686 18.4109 0.00582926
121053 19.4516 0.00643735
158540 52.8584 0.0211301
167434 72.9309 0.0288172
103398 34.1577 0.0193369
22835.8 18.0424 0.013743
15307.1 7.4921 0.00690359
12017.9 12.9307 0.0137949
71068.2 53.6534 0.0495236
27443.8 23.0386 0.0294143
27731.5 38.996 0.0479706
47848.8 48.1909 0.0684889
11676.3 12.6262 0.0241621
4240.69 3.96613 0.00995338
6698.96 6.91265 0.0157753
16120.2 21.2111 0.0462659
13783.6 26.0246 0.0659125
3229.82 10.2756 0.0303422
7226.6 11.1593 0.0353458
15843.4 39.0722 0.124379
10090.7 39.6333 0.132056
3927.07 12.3801 0.0420605
4845.57 13.493 0.0569119
5255.06 26.4999 0.112108
3057.8 15.7229 0.0725018
4309.11 21.1826 0.0966215
2359.28 6.50371 0.0341704
2829.14 20.1134 0.107771
8078.64 45.9874 0.245521
4634.91 16.8402 0.0970097
1161.16 4.95791 0.0324805
4420.07 23.1317 0.147832
3096.8 11.1454 0.0778662
2158.9 7.72084 0.0528669
2795.08 11.9018 0.0943139
1067.02 4.01393 0.0347091
3767.3 19.7862 0.166505
1963.87 13.1415 0.121651
979.358 4.63168 0.0469136
2215.67 13.0662 0.134645
1178.39 8.94771 0.0977458
844.936 6.05124 0.0673627
595.362 5.78871 0.0729452
818.502 7.50641 0.0862305
603.273 3.64358 0.0465976
525.875 5.8755 0.0816294
497.377 6.9764 0.0877136
551.14 3.66747 0.0525119
543.831 8.5966 0.121087
1112.66 9.20266 0.128339
456.797 7.59734 0.121282
1395.49 16.9603 0.256014
1008.73 7.92845 0.125209
388.011 6.45547 0.10834
934.933 7.46186 0.127118
359.48 4.88462 0.0881189
725.433 6.1656 0.119754
448.771 6.27809 0.12341
317.43 3.89854 0.0744469
560.861 4.55101 0.0979657
247.051 5.00666 0.109524
489.209 6.12251 0.1324
449.448 4.8288 0.107802
242.575 5.55979 0.126379
270.957 3.38975 0.0854762
391.843 4.98828 0.116549
286.938 4.736 0.120624
277.412 4.02871 0.100645
331.556 5.18578 0.142345
491.025 6.97489 0.181344
401.909 5.30811 0.150684
188.48 4.53699 0.128513
286.054 4.18451 0.123136
360.259 6.58063 0.196989
213.667 3.8938 0.120796
276.381 4.09657 0.125761
251.176 5.18924 0.1763
245.958 4.20248 0.143402
197.85 4.22 0.141657
182.319 4.33763 0.153834
215.738 4.71702 0.171705
220.095 7.09149 0.265502
219.164 4.00316 0.140003
163.655 4.39606 0.17692
182.511 4.64683 0.179742
211.324 4.245 0.165433
139.643 3.46625 0.136161
163.548 3.42664 0.156199
207 4.52009 0.178566
156.655 3.9735 0.173161
216.705 4.13196 0.174472
154.158 3.66001 0.17541
147.466 4.96382 0.227098
202.743 5.39231 0.264941
162.941 6.92054 0.334313
299.235 7.27029 0.342565
130.558 5.11879 0.260234
189.712 7.03479 0.360578
222.796 4.96727 0.260794
123.805 4.11986 0.226411
179.842 4.30512 0.229425
106.099 6.42471 0.36361
243.125 5.70992 0.304921
213.904 7.62293 0.443296
101.602 5.26509 0.298843
176.628 5.2786 0.304791
116.288 4.53007 0.273634
161.197 3.18593 0.187051
142.622 5.40217 0.330076
146.006 4.04397 0.255173
217.886 6.67949 0.441778
139.993 7.04195 0.458538
119.491 4.72593 0.30421
137.363 5.75558 0.391099
105.892 4.11983 0.278131
108.765 5.07676 0.353913
112.234 4.46743 0.31477
139.728 5.24978 0.371609
120.197 6.89773 0.523558
114.808 6.75663 0.482647
124.539 5.32019 0.413032
142.257 5.54999 0.421776
62.8116 5.5165 0.4203
107.052 4.01948 0.314869
89.4648 3.67001 0.291283
75.0473 3.92826 0.328902
89.245 4.96325 0.412121
129.053 6.30117 0.510018
120.845 5.30808 0.452498
88.0506 4.52261 0.376335
85.2781 5.21571 0.467712
98.425 4.18291 0.369838
82.4834 3.81013 0.343163
95.9656 4.2972 0.399083
98.9428 5.17356 0.504819
109.591 4.68019 0.45625
48.3057 3.23125 0.308969
73.7792 3.39208 0.319873
76.027 3.52065 0.337321
94.2267 4.98062 0.511193
56.6562 3.5202 0.354234
75.2107 3.12253 0.323767
67.0993 4.07787 0.4251
65.8798 4.46723 0.487103
73.8224 4.43529 0.485738
99.6757 5.16426 0.571781
83.237 4.40124 0.459781
52.2246 4.97098 0.575106
86.3147 4.03878 0.466019
59.5269 4.51023 0.536216
76.6882 6.3788 0.726582
71.2409 3.93939 0.445587
71.7967 5.46217 0.660885
60.6237 3.75712 0.439415
67.9218 5.95553 0.711811
58.918 3.89581 0.468561
45.0565 3.33921 0.431578
54.1387 3.45259 0.425058
59.759 3.47462 0.459143
65.175 4.42932 0.583466
73.0995 5.11967 0.689586
67.3227 5.8207 0.754965
109.146 7.00662 0.90711
41.4646 4.94624 0.686973
66.8761 4.91683 0.675856
74.9061 4.50822 0.616183
56.9909 3.53742 0.488457
51.7032 4.13686 0.597634
51.5593 4.17757 0.612601
49.3279 4.10793 0.589532
67.6314 4.92226 0.71021
56.6444 5.35351 0.811886
75.0995 5.68379 0.852225
47.0458 5.21423 0.814221
53.3192 5.48826 0.804171
71.5767 5.33733 0.832248
34.3509 3.57972 0.545868
48.3235 3.51508 0.540994
40.823 5.7986 0.927132
70.2952 5.8254 0.953721
33.2687 5.57018 0.933057
48.4291 5.87388 0.968726
54.884 4.04745 0.664367
35.1867 2.5456 0.427065
52.9262 3.97817 0.688565
41.3393 2.67338 0.436767
51.1305 4.50459 0.788351
38.669 3.68456 0.623976
59.6865 4.55828 0.803154
49.2743 4.97274 0.918549
45.6874 4.4595 0.796353
35.3991 4.5838 0.82103
31.5719 2.83776 0.511782
41.6201 4.14196 0.779659
34.0523 4.85052 0.918389
34.8998 4.09163 0.786372
31.3304 3.83384 0.717019
39.1473 3.69971 0.726129
24.8618 4.2614 0.873318
33.1971 3.65381 0.754152
33.2555 3.13369 0.602184
54.0468 5.15621 1.06281
28.5868 4.31302 0.83476
34.3435 4.38601 0.904268
41.0465 4.06257 0.79304
30.5688 3.35589 0.704703
34.5646 3.78464 0.789423
40.7517 4.91782 1.07166
35.4898 4.20887 0.895729
26.041 3.25624 0.705915
30.0641 2.87473 0.619067
23.6852 4.01375 0.913404
39.1412 5.02894 1.11928
26.139 4.72288 1.07119
39.9321 4.73165 1.12465
31.1884 4.42931 0.980232
27.7819 3.1678 0.76706
43.3754 4.91152 1.0618
27.5975 2.83724 0.657204
31.4424 5.1076 1.29531
29.8814 3.33226 0.814482
42.5077 5.13265 1.16369
27.1989 3.52437 0.841057
35.7143 4.57707 1.1687
42.4891 5.18629 1.23958
30.153 4.60758 1.19098
34.9406 5.15502 1.24755
16.5978 4.1123 1.07083
41.9265 5.53646 1.39006
25.781 3.63878 0.91396
34.7447 4.57787 1.19568
25.1798 3.19943 0.889343
36.4728 4.11055 1.11068
32.1633 5.06731 1.27537
24.4568 3.83001 1.04106
26.7046 2.76082 0.694938
24.6959 3.94064 1.11422
29.3158 3.49332 0.967668
26.3872 3.87076 1.02218
37.0247 4.18445 1.10517
36.1922 5.41976 1.53359
35.0783 4.92197 1.47419
29.9138 4.14624 1.16335
23.3664 3.92372 1.11466
29.7576 4.56512 1.37461
23.1226 4.30164 1.21136
19.9129 4.75627 1.3718
27.7575 4.22736 1.28006
22.6164 4.05438 1.2703
36.2902 5.02937 1.48996
22.0294 4.14325 1.21804
31.3382 5.07265 1.60766
23.621 4.03387 1.28429
30.7228 4.85155 1.49602
34.4462 5.1522 1.54338
27.035 4.60729 1.53707
31.423 5.23739 1.71172
17.0723 4.55684 1.41857
21.6789 4.21589 1.35469
33.2354 5.47787 1.85008
18.1668 4.89304 1.48514
18.9747 2.68107 0.891998
19.7772 4.66267 1.55157
27.5208 4.66607 1.53793
20.3465 4.29924 1.47574
13.7758 3.97315 1.46926
26.6822 4.31484 1.49904
19.7752 4.05118 1.33726
19.4148 4.08226 1.39108
22.59 4.49498 1.63907
18.1676 4.02512 1.54656
31.6162 5.00447 1.67679
21.1156 3.31514 1.26344
31.853 5.49362 1.92647
20.9369 3.19318 1.1337
33.1713 5.32295 1.8944
24.0815 4.66073 1.6303
19.4205 3.51261 1.34388
22.6327 3.96693 1.53341
15.7024 4.47296 1.69854
25.3126 5.29942 1.98847
18.1703 4.27007 1.63105
21.5021 4.16913 1.6635
27.1266 5.51521 2.11807
15.1086 4.02828 1.56047
18.8346 3.76141 1.49939
23.9313 6.39178 2.53461
17.9221 5.28541 2.08544
18.0993 5.31374 2.04584
17.5377 5.77171 2.23877
23.4281 5.17343 2.17306
18.4951 5.77165 2.33342
23.8364 5.69307 2.14906
14.8925 5.35293 2.24905
18.5226 4.26982 1.81312
19.7667 4.58845 1.89544
19.5741 4.33514 1.8715
29.9811 5.23098 2.10695
15.7941 4.23179 1.77324
17.64 4.34239 1.85683
19.9762 3.92163 1.61439
14.1849 3.98455 1.82979
16.2397 3.0394 1.38826
18.7793 4.24111 1.86391
19.2646 3.02892 1.30983
14.756 3.86112 1.77947
20.0325 4.92386 2.13164
19.6494 4.24085 1.88491
17.8387 4.12987 1.84436
19.4004 4.23396 1.93806
11.7053 3.42507 1.56522
15.767 3.90493 1.90378
17.3549 3.96894 1.71069
11.8689 3.87785 1.88888
21.1165 4.02033 1.73555
14.6956 3.88827 2.0211
14.7334 3.90729 1.83673
16.2555 4.90947 2.34294
11.7796 4.99451 2.53764
20.9527 4.23736 1.9784
19.301 4.7107 2.30766
13.7872 4.66069 2.24266
16.6511 4.09705 2.1169
12.8752 4.42394 2.17002
19.3827 4.91366 2.41883
18.8104 5.24175 2.55916
12.4133 3.67761 1.94186
13.8773 5.52408 2.60771
16.8604 3.75114 1.92211
15.4782 4.20136 1.94988
13.9161 4.24594 2.10119
13.9437 6.05958 3.30168
18.8081 6.13576 3.2448
11.1917 3.23608 1.61604
16.6624 4.61568 2.46858
18.2177 4.14894 2.27755
12.6723 4.47833 2.51752
15.1515 4.58799 2.59188
14.8342 4.35232 2.23038
15.3328 4.8884 2.77558
15.4957 3.58325 2.00466
17.8203 5.72582 2.74568
11.1379 3.5396 2.05473
13.5568 4.37631 2.33039
14.2275 3.91561 2.57119
11.6807 3.73665 1.88777
12.0652 4.14748 2.38625
14.9765 4.94636 2.58738
14.8266 5.24471 3.01307
11.3586 3.17598 2.08011
14.9778 4.68598 2.38607
11.8572 4.42664 2.64676
15.693 4.1323 2.49638
11.5585 3.44038 2.16579
18.1662 6.43994 3.68776
9.35758 3.74037 2.2213
12.0308 3.24433 1.81827
12.7901 3.94785 2.28246
17.6977 5.01157 3.01315
12.409 4.28178 2.68352
16.8485 4.26264 2.64388
14.0173 4.48361 2.96747
9.57137 3.73676 2.20637
13.2447 4.67616 2.60948
8.4284 3.24973 2.15949
14.3373 4.42551 2.48473
9.09109 4.22764 2.86529
15.0845 3.93373 2.37807
12.7085 3.6214 2.35635
14.1601 5.33235 3.39779
12.3942 3.24161 2.10434
12.3063 3.97631 2.80605
12.895 4.50331 2.76651
13.0191 3.86054 2.33241
10.4237 3.77716 2.34014
9.50733 3.29698 2.25355
10.5129 3.54394 2.39473
8.21791 3.52129 2.47043
16.4643 4.41865 2.77199
7.89157 3.65216 2.33328
11.9587 4.31479 2.89854
8.82314 3.58428 2.45382
7.61397 4.96566 3.49753
16.011 4.31996 2.97533
12.332 3.93482 2.41944
11.3869 4.61185 3.02042
15.6418 5.66156 3.95514
13.0066 4.76972 3.41804
10.4387 4.19974 2.68483
10.7543 3.50077 2.51585
10.8788 4.10984 2.81975
7.96544 4.65957 3.15627
14.7043 5.46265 3.99998
11.4151 4.42264 3.14964
9.25358 4.54728 3.25396
9.55147 3.05096 2.25018
10.5247 3.76902 2.78076
11.3815 3.83153 2.83136
10.0729 3.65054 2.62662
13.8154 6.01579 4.43215
10.8811 3.85684 2.89487
13.0062 5.89306 4.121
8.3126 4.25205 3.23255
10.5683 3.49356 2.89489
8.00958 3.94925 3.30647
11.2078 4.17623 3.13174
10.5613 4.46122 3.53806
12.7483 4.86122 3.44571
9.71613 5.83952 4.84219
11.4119 6.86923 4.58933
11.627 4.87626 4.11433
10.5107 4.19684 3.42199
9.1683 2.6163 1.9759
9.75675 3.93136 3.23667
8.30874 4.01073 3.04442
9.65259 6.17376 4.35995
7.8635 4.33591 3.62002
11.0723 4.82925 3.78199
12.4419 5.39023 4.08981
9.36571 4.24808 3.59139
8.12005 3.90819 3.12662
6.4748 3.6413 3.04502
5.77837 3.32036 2.77637
10.349 4.51565 3.55437
9.7365 3.232 2.49429
7.31258 3.2298 2.90596
10.5869 5.08836 3.88351
9.82975 3.36572 2.89172
8.55691 5.13936 3.93362
8.09538 3.45159 2.93708
7.38392 3.7177 3.35312
10.2164 4.3092 3.92127
12.3662 4.3181 3.58322
7.00465 3.71249 3.3429
10.7276 5.45147 4.68127
8.4878 4.59594 4.02443
8.84703 4.89205 4.06508
8.85317 3.96914 3.25769
8.50111 4.23685 3.37523
8.34109 4.79097 4.05798
8.33945 3.28616 3.02082
10.6547 4.18871 3.64246
8.50056 4.26523 3.94996
8.61374 4.43701 3.83179
8.98602 4.57831 4.41484
9.33508 4.13791 4.00724
5.84572 5.10115 4.51675
11.5253 5.50553 4.56689
7.82023 3.88802 3.61263
9.28441 3.24983 2.88709
11.3227 4.94112 4.76247
10.0913 4.71252 3.94261
6.76048 4.14605 3.98285
6.24663 3.96252 4.12084
11.7214 5.90772 5.62508
6.93071 6.00621 5.24988
12.0379 5.18967 4.80039
9.61279 5.10451 4.84698
10.5887 4.73984 4.26523
8.08137 3.38734 3.30972
6.45306 5.33551 5.01222
7.52759 3.09046 2.88457
8.10133 4.30555 4.38794
8.07757 6.43439 5.71572
9.83778 5.54526 5.79225
6.90743 3.58755 3.37269
6.74974 5.51682 6.07523
9.71556 4.69197 4.26009
12.6143 6.32058 5.82264
7.46157 3.87375 3.58175
8.12694 4.63835 4.75243
7.11725 4.82623 4.99235
7.91244 4.06928 3.57521
6.96675 4.1884 4.45476
6.84974 4.3464 4.8752
8.77611 4.26589 4.09637
7.8564 4.53182 4.34401
9.53005 5.23829 4.91507
8.24131 5.24816 5.05825
5.91544 4.46845 4.57166
7.91114 3.4857 4.16348
6.17584 4.687 4.74417
5.90109 4.0118 4.19138
6.38141 4.74515 4.771
8.51186 4.69925 5.37657
7.43191 4.47943 3.97458
5.96962 5.34671 5.5703
7.53466 5.02877 5.83344
9.72786 5.74489 6.20503
7.85137 4.92221 5.07745
8.71926 4.58266 4.68017
6.79187 4.14686 3.80146
6.61463 3.72841 4.52055
8.87786 5.60044 5.74209
8.03695 3.93639 3.94483
8.97864 4.94302 5.28482
4.73997 4.14841 4.41174
6.2482 3.23155 3.71679
7.72112 5.66028 6.20011
7.4015 4.17992 4.68864
5.05334 2.77927 3.46588
6.03605 4.79911 4.99769
5.80197 5.23391 5.41913
6.43142 3.53381 3.96692
6.48032 3.66726 3.92547
8.20191 5.14632 5.83798
5.74379 4.71616 6.11607
7.77217 4.73365 5.12177
6.59676 4.74435 5.7821
6.68374 5.05609 6.53886
9.09021 4.83004 4.37447
4.21414 4.74441 6.1424
6.17135 4.20031 4.30661
5.50871 4.34947 5.87891
5.68112 4.61128 5.50912
9.18407 5.11843 5.1212
7.73478 5.43348 5.91068
7.28635 4.7277 5.51913
8.41553 4.56643 4.97574
7.51708 5.1583 6.4821
5.80508 3.97274 5.47822
8.42872 4.17181 4.77047
6.51093 3.98221 4.59903
6.19474 5.89953 7.11675
5.32107 5.51558 6.93588
7.25988 3.78962 4.43911
5.82018 4.23987 4.94874
6.88002 4.41323 5.76238
8.39819 5.39517 6.53912
4.94167 4.02854 4.96449
6.81209 5.32877 5.60371
5.34095 5.09576 6.41556
5.30052 5.05623 5.40028
6.28041 5.29774 5.95546
5.78971 5.27744 6.85451
6.41769 4.39619 5.58838
7.30897 4.98808 5.82718
4.66585 3.28138 4.74472
5.9341 4.40218 5.58239
7.91458 5.41361 6.58218
5.93734 4.09676 4.85134
5.28894 4.21277 6.56726
7.20838 4.49476 5.92794
9.437 6.05165 7.37551
7.16242 5.09417 6.26955
4.92226 3.61819 4.72837
6.93691 5.04921 6.29382
6.60487 4.2879 5.37561
7.69525 5.62971 7.54937
6.75562 5.89786 8.20388
6.72056 4.75142 5.89343
8.41699 5.10483 6.22763
5.6527 5.07685 7.04691
9.24394 6.35485 7.82493
6.51699 5.60999 8.36197
7.23052 5.37641 6.68909
4.82357 2.84243 3.83526
7.36427 6.31869 7.67704
5.19139 2.74797 3.65113
4.97605 3.59627 5.22935
5.64711 4.21277 5.48001
5.06686 5.93574 8.57431
9.3102 6.48075 7.68375
4.83619 6.73811 9.25891
5.40699 4.59219 5.77899
4.30112 3.931 5.91921
8.05925 5.28939 6.6048
5.16175 4.86539 6.52663
5.70792 4.51634 7.02397
8.84116 5.59223 6.56539
4.58417 3.76176 6.03081
5.46471 4.68455 6.53219
6.40212 4.25496 5.32728
5.13595 4.44425 6.05476
4.32382 3.04474 4.36998
5.90571 4.80025 6.54869
5.9277 4.32806 6.734
7.34347 4.59127 6.36806
5.75397 4.37978 5.98034
4.67556 3.83086 4.92306
5.05311 3.23813 4.70993
5.43487 5.17466 7.3513
3.25493 3.6478 5.76635
5.07274 4.30444 6.80992
6.318 5.35473 7.00948
4.76546 5.20201 7.66355
6.33966 5.39695 8.26286
6.35235 3.53804 4.83443
4.91694 4.42101 6.37217
5.78233 5.82826 8.8198
7.21105 4.66477 6.79766
5.64963 4.57638 6.12878
4.80431 4.99741 7.69431
4.90323 5.37201 7.85395
6.96755 5.06437 6.69072
4.96035 4.47679 6.94878
5.10585 4.45012 6.67387
7.07919 5.23584 7.29141
4.2673 5.20971 9.2066
6.24104 4.82325 6.95979
6.70831 4.97002 7.08138
5.16729 5.36868 8.15065
6.17462 5.70585 8.14709
4.22971 5.37152 8.4229
6.54056 4.27727 6.76338
5.78117 4.10766 5.64076
5.77413 4.84008 7.31758
5.11694 4.96194 7.5611
5.04117 3.72888 6.28346
4.09355 4.37815 7.21126
6.10222 4.23706 6.74705
5.17201 6.05243 9.49248
5.02951 4.31222 6.93682
4.89154 3.78669 6.70159
4.59978 5.735 7.85834
5.45728 4.01951 6.46068
5.20926 3.97318 6.25541
5.65459 4.37901 6.85719
5.45416 5.7961 8.77066
4.51752 6.2073 10.3502
5.75836 3.95779 6.67668
4.91781 4.66041 6.86558
5.47684 4.06719 7.00185
4.67859 3.57984 5.3997
4.78945 4.79839 6.7455
4.1704 5.3939 10.4573
5.58431 5.02556 6.75879
5.11922 5.10576 10.6759
5.65515 5.44341 7.96338
5.50793 6.13304 9.20939
5.10208 4.5069 8.3758
5.88843 4.99113 7.24726
4.07109 4.71755 8.24442
5.89536 4.52057 8.24851
7.18694 6.02064 9.53205
4.94606 4.56176 7.75361
5.82172 4.84585 8.28331
5.16357 4.50262 7.67094
5.45777 6.0872 10.628
4.56806 5.2167 8.39474
5.74589 4.41562 6.99393
4.70168 4.93946 7.88395
4.61754 5.36803 9.3031
4.67607 4.99418 8.24663
4.40098 4.67775 7.20683
4.3854 4.50841 8.20249
3.37062 5.03782 7.70231
4.76232 6.19272 12.0765
7.151 5.73379 9.59167
4.1826 4.54466 7.7888
4.0566 4.29115 8.46658
6.428 5.14229 6.97537
4.4819 5.0445 8.80156
3.48088 3.84917 7.23464
4.51411 4.18156 8.26897
6.69535 4.9188 9.59556
5.60398 5.3422 8.2243
5.57958 6.36106 9.98526
4.20973 3.46311 6.08497
3.64044 4.16558 7.46333
4.50542 5.52087 10.0471
5.31388 5.90856 9.70056
5.06768 4.81151 8.21726
4.81288 4.58845 7.88316
4.58372 4.51229 7.62812
5.47264 5.53652 9.84421
3.82671 3.54628 7.3722
4.60917 5.76113 10.5394
4.57764 5.05675 7.97854
4.68671 3.96812 6.64101
2.39932 3.37207 7.61301
4.77258 6.96758 11.6559
5.67792 5.95712 9.74451
5.12391 5.1085 8.90354
4.25371 4.49322 9.98126
4.30844 5.77483 10.7601
5.98952 5.09313 8.83245
4.4649 4.44789 8.28297
4.83874 6.39233 11.3435
4.36425 4.17939 7.11435
4.00653 5.19723 10.4184
4.94216 5.85639 10.049
3.17697 4.17981 8.68239
6.13454 4.67658 7.88241
5.42986 5.67397 11.4097
4.07658 5.49245 9.99752
4.20094 5.11986 10.1329
4.15907 5.00588 9.66566
3.68059 4.17716 7.81845
4.1359 4.40011 7.80147
3.50552 5.31605 10.9773
3.15351 4.26723 8.67763
4.42414 5.71754 9.33543
4.14516 5.02373 8.36989
3.42731 3.52656 8.07636
4.00062 5.12988 10.0502
3.51014 4.48933 8.58745
3.88427 5.29806 10.9952
5.32491 6.74961 12.4276
4.48685 5.20732 9.41284
4.26683 4.96801 10.2947
4.1253 3.58265 6.94454
4.06592 4.53593 8.82286
3.95595 4.55902 8.21804
4.51619 6.593 11.9181
4.61461 3.94796 8.08661
3.79834 4.64784 8.6138
5.71426 5.71458 10.3371
3.23972 5.53996 11.9371
3.5996 4.69115 9.21832
4.73699 7.13205 16.7686
5.26491 5.0266 9.36658
4.66607 5.48753 11.5018
4.01866 4.27825 7.90472
5.51447 4.89485 10.213
5.15199 6.0263 12.1955
4.81447 4.4704 8.86332
4.534 5.38043 11.3035
2.75429 5.69011 10.4023
4.44875 6.47355 12.474
2.97278 4.02552 10.0125
5.07011 5.64749 10.8468
4.34187 6.7893 13.1648
3.22721 5.36885 10.4828
3.96865 5.83041 13.7641
4.45189 4.46094 11.4797
4.21579 5.42036 10.4563
3.70377 4.07308 8.62743
4.02888 5.76593 11.4202
3.92632 4.65308 10.1369
4.05656 5.56174 11.3583
4.84432 4.16976 8.01067
3.2875 4.37511 9.20802
3.9334 5.37682 12.9138
4.59294 5.28745 10.535
4.19446 5.0193 10.6251
5.48499 4.52648 8.05326
3.57783 4.45515 9.72256
4.01519 4.64017 8.36693
3.86214 4.24597 8.21961
3.63796 5.45088 14.7404
5.58949 6.61897 12.8017
3.17783 3.21651 7.88965
3.62567 4.62513 9.44749
3.79303 5.07695 11.5924
4.77135 5.48815 11.4885
4.16503 4.96043 11.1481
3.21332 4.93966 10.3889
4.1544 4.1574 7.99429
3.60759 4.07005 7.95805
2.76338 4.53585 10.0746
3.95917 6.18805 11.8215
4.26937 5.58499 14.6245
4.08409 6.78347 13.1192
3.60183 4.9898 10.7395
4.08543 6.45424 15.4104
3.82688 4.42896 8.60919
3.46368 4.02874 8.01725
3.54621 5.39837 14.6768
5.05183 6.95038 12.7584
3.69094 4.84816 11.878
4.81059 4.93267 11.5423
4.00166 4.82195 10.6122
3.55334 5.8825 12.0708
3.13903 4.51812 10.313
4.04458 5.01057 10.5746
3.89263 5.46127 12.0066
3.76985 5.14595 11.8959
2.89366 4.15647 11.0732
3.92394 5.20407 9.86243
3.19477 5.77117 12.6766
2.93702 4.86377 13.8061
5.09234 4.81019 10.3304
3.05723 5.50028 13.2589
6.07107 9.43164 19.0867
4.68104 5.03441 10.577
3.41737 4.5281 11.8895
4.67701 6.39461 13.2661
3.80851 4.009 9.52463
4.01601 4.38575 10.0912
3.45098 6.29205 15.2923
4.85806 5.61867 14.7791
5.38297 6.35597 12.9582
4.0475 6.44151 12.6429
4.03128 5.65089 12.4385
4.37521 6.64607 17.2591
4.26466 5.50527 9.6199
3.03572 5.8358 14.4415
3.05146 5.02788 11.933
3.24376 4.11754 9.74281
3.71143 5.77504 14.375
3.6573 6.64921 14.2972
3.57493 5.1627 13.7846
3.50083 6.11572 11.8629
3.14544 5.03859 13.1262
4.21891 5.26659 12.8275
4.48988 5.15068 11.4715
4.11309 4.65825 8.91128
2.83281 5.10298 15.1807
3.64821 4.36714 11.2816
2.98819 4.2404 9.51187
2.73384 4.41782 11.9512
3.88702 5.15731 12.4353
4.87123 5.74789 13.1951
4.13259 7.66666 14.5572
3.39211 4.86177 11.7698
3.85692 6.22788 15.0845
4.03614 5.71416 11.8554
2.29951 2.92967 10.6311
3.27422 6.66145 16.1139
4.23596 7.23623 14.0682
4.02575 6.76644 19.3471
4.82849 7.75413 16.808
4.37647 6.79349 17.8425
3.14445 5.66523 14.1076
3.2422 5.83786 11.835
2.82896 5.68875 14.9632
3.23078 5.49277 13.3178
3.37933 4.77813 12.3196
3.83662 5.89705 15.9597
4.47714 6.69698 16.5406
4.44286 5.83435 14.5583
3.72824 5.26108 11.9526
3.19144 6.72424 14.5006
3.08543 5.87017 15.0477
3.60902 5.28973 10.87
2.79405 5.37041 16.8722
5.12324 7.34275 18.1093
4.17159 3.99771 9.23724
3.42674 4.2198 11.4443
3.17733 3.68576 11.485
4.45793 4.78816 10.1231
3.03751 4.84815 11.8032
3.17002 4.35111 10.6654
3.06934 3.97107 11.6272
2.19291 4.75624 11.5395
2.92548 4.42356 11.2581
2.82897 4.60982 12.1434
3.41523 3.97419 9.13814
3.12047 4.88708 12.3727
2.91172 4.9882 14.5381
3.82802 4.8062 9.72234
2.34405 4.39899 14.2406
4.77803 5.72411 14.1799
4.26892 5.07399 14.2887
4.05622 5.41911 14.5974
5.56269 7.79033 15.2267
3.35111 5.18305 14.1872
2.179 5.2003 12.9494
2.77089 4.77445 11.9468
2.40028 4.14813 12.2961
3.06322 4.9122 12.3452
2.82403 5.0452 13.0087
3.65351 5.66188 15.2877
3.54715 6.49799 15.9831
2.63695 5.4935 14.9654
3.04005 4.73701 13.3837
3.77739 5.06398 13.3504
3.46247 5.03254 12.8932
2.82852 5.93784 17.2213
3.78757 5.96216 12.6787
3.17444 5.01307 13.5003
2.46502 5.37104 13.2834
2.88029 6.01678 16.5876
3.30502 6.1506 16.8565
3.86769 5.64256 14.2247
3.34902 5.9389 14.2649
3.59645 4.45163 11.5612
3.66181 5.46836 16.7286
3.79509 6.96723 17.1408
3.46039 4.43037 13.0203
4.46775 5.85799 16.5747
3.71533 7.3258 17.6004
4.23472 5.71434 12.4612
3.16481 5.38824 14.4511
2.92971 4.8462 16.1302
4.19554 6.24367 16.5818
2.46504 5.49744 16.9614
2.62697 4.7895 13.1287
3.01389 4.77286 11.5928
3.38213 4.68871 13.493
3.99296 7.14221 16.7324
3.1601 5.74628 13.7155
2.93917 6.00005 19.1091
2.68094 5.23688 15.6548
2.99415 5.43575 15.3365
3.87852 6.81844 17.4417
4.97424 7.96149 19.5643
3.77029 6.38085 17.7528
3.10668 5.4338 15.4625
3.66777 5.94336 16.6729
3.6696 4.91559 15.1881
3.0197 6.34891 14.9368
2.72445 5.83216 17.857
3.863 7.12838 18.3687
3.8872 6.44061 15.8875
2.59412 5.34018 15.0884
1.95652 5.87892 16.5054
3.27892 3.97696 11.3492
3.60525 5.64502 16.2429
2.92106 5.73263 15.9144
3.58039 6.15662 17.2506
3.04316 5.51854 12.4953
2.93662 6.03435 22.9286
4.01553 5.57523 14.6438
3.4719 5.45426 15.7772
2.74808 4.40201 13.5767
3.54833 4.14356 11.8245
3.58409 5.34174 15.4403
2.82428 6.12466 16.6819
2.7734 4.63737 11.7239
2.57455 4.24428 13.1088
2.98138 6.28962 17.933
3.18812 5.58661 17.5011
4.01986 7.60121 18.9915
3.40126 6.568 22.9203
4.08398 6.62965 15.901
2.60695 5.16581 11.2672
2.67465 5.93376 18.3158
2.90483 4.99647 16.8676
3.98052 7.16352 17.2767
2.91818 4.07785 14.1146
3.65367 5.73626 16.4311
3.40525 6.0815 16.4465
3.50938 5.65023 16.3202
3.68687 5.03963 12.1868
2.26664 3.78584 12.2996
2.61418 5.53328 18.5912
4.34114 6.98376 17.8343
2.31387 4.17715 13.3724
2.59839 4.45529 13.8192
2.63818 4.77565 11.6038
2.44238 4.83918 13.7083
2.30367 4.70866 14.0498
3.49925 4.4978 13.3449
2.81534 6.58496 22.7175
3.47597 5.71005 16.1743
3.38735 5.42902 15.4088
2.92802 5.41833 15.9654
2.79824 5.02899 16.0301
2.55357 4.83124 13.7548
2.83638 4.21249 14.4208
3.75076 4.96334 13.1212
2.88351 4.94682 14.8865
3.78651 5.13088 11.8359
2.9851 6.29769 22.06
3.655 5.04187 15.2351
4.10722 8.63416 26.0002
4.33114 6.71053 17.002
2.34279 4.89055 15.0711
2.64615 5.31079 15.4325
3.73928 6.3939 18.5928
2.16911 4.04152 10.355
2.37552 6.5391 21.9711
3.27511 6.14697 15.3061
3.2478 4.52293 15.8799
2.39409 5.24959 15.0678
3.48672 7.00855 22.8924
2.63321 5.30012 16.2398
2.94793 4.78694 13.6039
2.85158 5.62672 16.6279
2.85725 5.48556 19.8123
2.57104 5.72959 15.6194
2.44292 6.6485 19.0801
3.05281 6.50912 19.6548
3.04805 6.02119 13.6143
2.09627 5.15772 20.851
3.49339 5.07796 16.4258
2.40251 6.27117 20.9333
3.38257 7.30157 15.5845
2.36179 4.79565 17.4339
3.49652 5.59356 20.1546
3.58989 6.04695 19.2584
3.1574 6.69191 19.1653
3.5272 5.53058 12.6993
2.45424 4.96172 15.4324
2.94921 4.67707 15.1773
3.24048 5.78858 18.8423
2.62952 5.87808 19.917
2.85525 5.61296 14.8511
2.49256 4.5005 16.6728
2.5613 7.396 20.8289
3.06208 4.77962 17.278
2.78624 5.04334 15.0477
2.45463 6.10323 21.74
4.1399 6.06373 11.609
2.01125 4.75871 18.4149
3.22827 4.82477 14.3275
2.58889 5.57351 16.8982
2.87196 4.3639 14.4024
2.55932 6.93295 21.8164
2.7054 4.59625 18.2264
3.48892 6.38566 17.509
2.44367 5.41247 16.8197
2.36571 3.58589 12.4592
2.72507 4.90945 18.1099
3.69104 6.02192 18.3226
2.57232 6.39351 18.1258
3.36252 5.99585 15.9887
2.72922 5.75157 21.089
2.8493 4.92191 15.6889
2.11332 5.06077 15.9503
2.0138 4.41794 17.8725
3.27104 7.36952 20.4562
2.45092 4.93809 24.0161
3.17728 6.18777 16.1963
3.01943 5.27565 17.4276
3.01169 6.2248 22.6036
3.61431 7.71914 17.6183
2.56076 5.50997 19.0521
3.22059 6.67265 18.695
2.57467 5.27111 22.1408
3.92365 7.29275 17.6029
2.31256 6.29778 19.4238
2.69214 5.86222 19.1705
2.73318 5.74752 16.7348
2.63505 8.38222 29.1723
2.9996 6.52356 20.5033
3.21883 6.05257 20.3493
2.51748 6.35762 22.4887
2.73906 5.14924 18.7958
3.57672 9.14384 24.7792
2.86926 6.67256 21.1949
2.35977 6.31532 22.9458
2.81934 5.09558 17.9457
2.8952 6.23813 19.6539
3.1695 5.18256 21.0237
3.28715 6.65356 18.4497
2.64096 6.11064 21.3685
3.63896 9.43441 25.027
3.67275 5.4371 17.1174
2.00574 4.00536 15.9597
3.06627 6.56611 19.5143
2.19258 4.41258 20.4401
3.38557 6.26942 17.844
2.4917 6.32139 17.1115
2.55493 5.49056 18.6279
2.98706 5.51071 16.7193
2.73099 7.13569 24.7931
3.11483 5.82982 17.4923
2.49411 6.00456 22.455
3.15459 5.97188 19.2479
2.3225 7.05236 19.8604
3.18916 7.73214 26.7399
3.04362 4.32669 15.019
2.12764 7.13557 22.0578
2.8261 6.41461 25.6814
3.79225 6.18034 18.4579
2.89617 6.68763 18.9855
2.74387 4.41329 14.0107
3.18967 4.17241 13.8881
2.28026 4.63452 17.9864
2.78019 5.49933 17.5991
2.90218 5.10621 18.2824
2.86577 6.49704 20.5463
2.05568 4.8306 15.9298
2.77788 5.12328 19.0433
3.16937 6.52791 23.3185
2.98027 5.63418 24.4311
3.553 5.03992 12.9405
2.33809 6.05363 19.9117
2.9305 5.39782 16.5997
2.26555 6.55625 17.4715
2.30214 5.21048 22.1103
3.00014 5.46554 16.9396
2.1259 5.02059 20.8018
2.68964 4.66806 16.0225
2.44858 6.71276 28.4792
3.69264 5.30782 17.3168
2.56668 7.53654 21.3796
3.03364 5.67097 17.9373
2.7171 5.33724 16.4438
2.32393 4.78147 21.3961
3.03733 6.89517 29.4316
4.20863 9.43016 18.6974
2.12858 6.31335 22.9079
2.79866 4.47404 16.5275
2.36995 4.58669 15.8647
2.50255 5.14677 16.3252
2.52616 5.08993 19.7538
2.49441 4.46259 18.6386
3.08904 7.30862 23.261
2.71637 6.00776 19.1519
2.41083 6.14006 23.7369
2.62729 6.71018 22.2796
2.09773 5.57124 23.83
2.92601 7.15906 20.916
2.69227 4.58643 19.4723
2.80134 7.71585 25.0713
3.0088 5.15234 17.6275
2.69902 6.5238 20.944
2.20595 5.66222 22.9366
3.03843 4.00548 18.5551
3.78405 8.4134 23.1931
2.80078 6.00244 16.7343
2.31101 5.14649 16.7201
2.47996 6.83046 23.1418
2.29929 4.88198 14.5541
2.07594 4.72049 20.3145
2.22281 6.22594 22.251
3.24396 6.21455 20.2996
2.58441 5.10251 20.7142
2.19587 5.50099 20.7743
2.85265 6.76131 22.586
2.64604 5.51737 15.2053
1.93776 6.05871 25.5053
2.24133 4.77988 17.9875
2.95939 5.34345 16.8868
2.32436 5.87164 23.9519
3.32267 6.60837 16.5424
2.28948 5.27466 20.2047
2.60701 6.58609 25.4282
3.42655 5.72908 20.0152
2.73648 7.2505 21.26
2.84266 5.9628 26.7667
2.54827 6.65083 25.436
3.78122 6.28991 15.8905
1.53469 4.16378 17.7462
2.89255 7.58725 23.8673
2.1934 6.05667 24.3648
3.41887 5.24578 20.402
3.48238 6.60362 24.1381
3.76318 6.20157 23.1356
3.00103 6.26059 13.2236
2.4347 6.79652 29.6046
3.07813 5.33752 19.0136
2.33449 4.71393 22.7391
3.7139 6.94656 20.9959
3.22722 6.12025 15.6487
2.16076 5.57913 25.5322
2.53502 4.55966 17.8064
2.53405 7.89865 24.9307
2.94938 4.65255 18.496
2.68993 5.32835 19.6625
3.08978 6.46394 21.0911
2.25173 8.42794 30.6955
4.03658 5.88262 17.4678
2.5775 5.63056 20.7052
1.91973 5.53875 19.6857
2.37682 4.81007 17.8856
2.11938 5.76889 20.514
2.6999 7.28648 27.7971
3.15293 7.06382 24.0388
2.70316 6.26673 30.9415
4.64461 8.65402 24.1048
2.98386 6.9123 17.9363
1.96486 4.19767 17.2551
2.21195 5.85638 22.9858
2.45963 6.59016 23.4633
2.66825 6.25394 19.7422
2.2577 5.9858 21.4644
2.07659 5.73403 25.2096
2.84274 6.30081 24.0915
3.26829 7.69549 26.5514
3.06216 6.26216 23.143
3.21587 5.40099 22.3168
3.28337 7.21498 19.5837
2.14572 5.88976 25.8483
3.79883 7.66258 26.7644
2.85384 5.0203 15.0453
1.91163 6.29862 20.9341
1.76882 5.23139 27.6402
4.33334 7.82196 18.2626
2.38432 5.93177 27.412
2.29732 7.06926 22.8129
2.38285 5.14219 20.1982
2.08505 4.30959 21.2468
3.38973 7.91153 23.2594
2.2865 7.12567 26.4538
2.15171 5.11537 20.7025
2.40457 4.65726 19.5682
2.16362 5.53282 22.4799
2.16007 6.77336 23.0958
2.76656 5.08158 19.2927
1.99202 5.41516 24.5383
2.53312 6.72553 22.1833
2.37067 7.18934 23.7273
2.77673 7.26056 24.6761
2.39115 5.49003 22.0535
2.63572 6.48566 26.4232
3.09486 6.13279 21.551
2.17679 6.62981 21.5096
2.49567 5.94805 22.7684
2.27301 6.89123 22.2466
2.6014 6.77679 31.229
3.99672 7.35575 20.7042
2.25607 5.55218 20.1693
2.12651 4.8197 23.0843
3.1829 7.08119 22.3033
1.88507 4.71663 22.0577
2.67933 5.83848 28.0153
1.83678 5.18513 16.9614
1.67604 6.37352 23.0121
3.43948 7.18145 27.4897
1.90468 7.31457 23.8886
2.64527 6.18472 20.7183
2.45598 5.30706 26.5467
3.86764 7.51176 19.771
2.01049 4.75998 26.4282
2.77828 5.09499 16.034
2.37849 8.47157 31.0557
2.91283 6.92102 24.3799
2.20848 5.88082 20.7133
2.33694 7.4909 36.4223
3.50956 7.18115 20.5034
2.06246 4.6322 15.3142
2.54273 4.7383 21.4011
2.95497 7.82398 29.8989
2.17345 6.29125 17.75
2.61378 7.25958 29.052
2.54779 5.24792 21.3365
2.56148 6.59595 22.7171
2.6963 4.84149 19.8508
2.20822 5.83966 29.0145
3.76873 6.72639 17.2326
2.26377 6.61778 29.6643
3.33538 7.89114 33.5902
3.42859 7.65956 26.4178
3.36447 7.23304 18.9717
2.07759 5.52003 27.2574
2.9635 6.85328 21.6795
2.3477 5.48363 25.5441
2.68743 5.81432 20.7512
2.49428 5.91744 22.4148
3.02346 7.42435 27.6895
1.96308 5.43989 24.1794
2.36929 5.62197 20.4106
2.32845 5.7533 22.3458
2.25713 6.43944 21.5246
2.84457 4.9194 22.0232
2.00444 7.29105 24.3874
2.56749 4.86726 21.0254
2.38936 7.43367 29.7298
3.13467 3.80772 25.0363
3.31857 8.38953 19.5564
2.06836 4.39275 19.7495
2.06852 7.16884 23.3331
3.37677 8.15597 32.0164
3.79989 9.08399 27.8082
2.49755 6.42071 27.0041
2.64215 5.8262 23.1564
2.45068 5.12074 27.5577
3.1072 10.6333 30.4898
2.13039 4.9092 18.2664
2.3537 6.23574 29.4525
2.18307 5.66114 19.0447
2.44615 5.19025 20.2507
2.39061 5.67536 21.6149
2.02902 5.14617 20.0953
1.77682 6.17872 24.4741
2.17665 6.57349 18.8063
2.24796 6.19832 26.4984
2.50021 4.76825 17.0724
2.35154 5.4057 25.7168
2.18938 8.52243 25.9257
2.65374 6.75299 29.6861
3.60272 5.90848 25.0508
2.90988 4.86811 18.887
2.42681 6.23034 24.9336
2.58029 6.12363 24.8193
2.69021 8.0021 29.5724
2.64104 5.082 23.6779
2.75562 8.35079 21.5217
2.21997 5.32819 20.8434
2.26533 5.92955 25.1137
2.56179 8.08165 22.0323
2.0561 3.73909 17.1243
1.52859 4.93346 21.2182
1.98957 6.57427 20.629
2.0186 5.15844 21.0273
1.65472 4.6189 27.8814
2.28533 5.38908 17.7933
2.07574 5.56013 24.0843
2.85194 6.00616 27.9296
2.23389 8.27926 22.9049
2.88351 4.23477 19.2062
1.93679 6.41794 23.6178
2.91956 6.57083 25.4851
2.58964 5.63361 26.6196
2.34069 5.10352 17.0645
2.08143 6.11816 27.9207
2.36522 6.44144 29.2973
2.49213 6.96647 23.7616
2.27023 6.69441 20.1651
2.13211 6.23282 22.1583
2.21395 5.60926 19.8598
2.67611 6.22366 22.8508
2.25952 4.57678 30.6981
2.54663 5.46356 25.1039
3.06333 6.3125 28.4074
2.80375 8.40174 28.9563
3.02512 8.32979 21.3361
2.74086 6.80912 33.9507
2.83061 7.67066 24.0155
2.30155 4.90493 19.9672
2.2593 6.22979 33.0439
2.58625 8.23621 24.1339
2.8935 11.0015 37.7215
3.08676 5.52354 30.9647
2.12383 6.20019 16.9956
1.33588 4.84943 30.8561
2.24714 6.7578 24.2683
1.65892 5.96956 24.4684
2.28519 7.33554 24.013
2.31009 6.09873 27.8519
2.57494 7.22701 30.7379
2.49606 8.48027 23.4323
2.51261 6.03858 21.7552
2.56636 6.57415 26.0193
3.03056 6.18261 29.8834
3.02032 6.66787 24.6906
2.32615 5.46615 23.972
1.87572 6.58537 24.4223
2.12799 7.67874 32.7066
3.19822 8.1452 26.0295
2.74772 4.87775 21
3.04276 7.10595 27.4845
2.18188 4.83671 19.7927
1.96566 5.3266 21.9215
2.53662 5.95555 20.4388
1.83733 5.8831 26.2605
2.47778 5.20876 18.5696
2.23892 6.88027 27.9728
2.23509 7.23841 24.2713
2.76472 6.52062 30.842
3.02833 5.94827 18.7247
2.09053 5.42031 22.7347
2.53012 5.67831 19.0302
1.76555 6.42893 24.8183
2.07498 5.61908 23.4509
2.39781 6.49797 28.1165
2.24695 6.64077 34.9605
3.3304 7.15945 24.1372
2.78689 7.12267 33.3919
2.4707 7.92612 28.1865
2.43277 5.36926 19.5229
2.12174 5.45836 27.3348
2.88356 6.62707 24.2209
2.55901 6.16706 19.6378
1.94431 6.02521 22.6427
2.26715 5.03453 29.7053
2.62291 6.99309 26.6082
2.45189 9.20015 31.0184
3.04625 4.998 22.7322
2.32712 4.56482 22.404
3.03498 8.23534 33.1755
2.39147 7.91704 26.5125
2.87719 7.61439 21.8437
2.09364 7.15731 27.1147
2.717 8.21832 29.7805
2.68823 6.95572 27.7168
2.86736 6.03042 21.9716
2.0594 6.61881 28.9217
3.37996 6.26088 22.6855
1.98812 6.12593 27.8592
2.70721 5.96295 16.9458
1.8298 4.49394 21.7033
1.91056 6.26757 19.9901
2.08585 4.87614 26.3015
2.83665 6.64143 23.3453
2.22948 6.97501 31.9138
2.80818 8.69312 30.1182
3.11104 6.29478 28.7802
3.4651 8.15088 22.818
2.20583 5.30099 27.4803
3.23153 5.71727 17.219
2.13406 4.95043 25.4791
3.08592 8.1513 25.2735
1.67355 4.7877 27.5459
2.27289 5.27328 21.1808
2.42746 6.23524 28.8055
2.63744 6.14611 22.0628
2.13532 6.54016 22.6705
1.89769 5.56975 25.4433
3.04426 5.70082 18.4611
1.91114 5.34192 28.6563
2.28121 7.32422 22.3031
2.35331 5.03253 21.2428
2.3922 4.82321 21.3548
2.14229 5.71957 23.6741
2.004 6.21062 31.3275
3.23992 7.10992 26.3476
2.71351 5.03233 23.2174
2.10356 4.73462 24.4053
2.05474 9.83634 32.4746
3.95837 8.73487 30.5793
2.00097 8.91957 38.4872
3.56987 7.03439 19.9005
2.17088 4.90418 20.2401
2.43389 4.26969 26.4194
1.83591 5.7608 16.6552
1.56763 5.01742 23.4513
2.82914 5.50502 28.2505
3.21243 7.80454 20.144
1.83306 5.49394 25.51
1.88469 4.58047 22.1568
1.60917 6.51815 26.0222
2.11166 6.43612 24.1405
2.19866 9.00734 22.0801
2.67112 7.02709 28.842
3.33236 6.2653 21.7561
2.47319 4.33323 27.8721
2.85758 5.85261 27.1982
3.00187 7.86802 28.4293
3.12787 6.16198 29.7812
3.01897 7.36313 22.5896
1.77811 4.89962 24.3893
2.1894 7.05904 24.4994
2.16802 7.88518 31.2858
3.6989 6.33015 24.7195
2.61481 6.7002 26.7804
2.84144 3.7963 22.298
2.68265 7.0755 20.5463
2.12969 4.93999 14.4327
1.50196 4.37879 21.1905
1.77015 5.38021 19.0271
2.65552 5.83829 24.3015
2.25687 4.12515 20.6464
2.16018 7.05887 35.5793
3.15554 8.11277 26.1437
2.97536 4.59784 19.7233
2.04332 6.06879 24.8376
2.76933 5.7908 17.1208
1.87026 6.47189 26.4482
3.05545 5.69484 22.568
2.61514 5.11134 25.3507
2.9959 5.81175 30.8309
3.25218 8.63372 25.6967
2.36105 4.78788 20.9157
2.49337 6.51857 23.1323
2.65174 6.67511 29.2506
2.1241 7.12026 32.2773
2.85575 8.47012 26.427
2.83185 4.48962 17.0527
1.85619 0 0