# pn-170911/RbIIA-26-TWTF-1280-1959.psd
# Power spectrum* (dif=0,1,2) (really just |FT|^2)
# NOTE: only the first half! (symmetric)
# weeks: 1280-1959
# 4 clock-days, 4 excluded
# PSD: 1441
7628.36 0.136586 0.0203032
112693 6.25945 0.00519571
691254 25.6439 0.0063715
232161 2.92689 0.0053298
213570 5.90836 0.0052819
62374.8 6.02555 0.00449557
57200.3 3.46927 0.0057109
25397.3 3.01542 0.00754734
28495.4 2.34546 0.00542348
20965.8 2.66761 0.0036306
8776.52 4.26447 0.00935934
10739.7 5.12224 0.00730239
6134.03 0.160928 0.00475876
9335.9 6.74089 0.0171266
12392.9 3.56661 0.00621942
6585.4 1.74875 0.00493849
1515 3.25784 0.00941061
10310.2 8.92878 0.0181682
4651.71 3.04571 0.0028908
3354.55 4.72718 0.0168897
4125.72 4.24515 0.0150323
3465.08 4.25229 0.0114564
2316.02 3.04772 0.00631856
1200.32 1.03046 0.00540696
2441.4 4.58455 0.0197048
6342.07 10.4726 0.0337181
3206.18 4.0436 0.0218955
2957.82 3.14077 0.0143444
1741.1 6.61683 0.0261656
2886 3.43689 0.0118305
1693.45 4.77781 0.0186324
3676.09 6.32283 0.0436445
2798 5.67641 0.0304365
639.954 1.73723 0.0090191
1723.47 6.29617 0.0305536
1008.83 2.84991 0.0284378
1148.19 1.75087 0.0124329
1317.13 3.59902 0.0230296
2473.65 9.74361 0.0679425
1760.43 4.38139 0.0337623
703.972 4.99818 0.0565938
913.024 5.06095 0.0399432
990.714 3.25994 0.0311052
229.416 6.01098 0.066358
1327.11 4.30207 0.0532283
1172.1 6.32213 0.0460672
441.162 1.48588 0.0199982
1346.44 5.21497 0.0548877
434.238 2.50385 0.0329332
958.012 5.66587 0.0519853
825.141 4.71008 0.0581494
1296.69 8.44833 0.103204
351.335 1.41799 0.0225713
447.53 3.88756 0.0577183
573.643 5.58564 0.0788699
989.22 4.33028 0.0621076
605.858 7.40161 0.106757
685.806 4.65496 0.0805121
624.119 3.80787 0.0659493
169.025 3.28011 0.0575566
549.532 5.04676 0.105785
753.45 11.9433 0.177936
224.726 4.61995 0.0986786
508.857 5.63572 0.111682
260.5 1.6705 0.0344452
472.236 2.49791 0.0556017
300.336 1.53745 0.0405856
174.969 5.27161 0.128376
399.997 5.48036 0.167542
509.58 8.86758 0.198057
304.675 2.10982 0.0395177
743.367 11.2267 0.262638
303.469 2.26071 0.0757568
191.379 3.74054 0.0976231
138.974 4.14551 0.131819
468 9.72295 0.237637
306.948 8.8765 0.258826
378.832 4.19448 0.113122
337.538 2.55165 0.0767335
189.693 3.16634 0.102437
171.001 1.72588 0.0792129
485.697 6.89763 0.222029
263.608 5.21833 0.172727
143.198 1.62497 0.053461
76.559 2.56642 0.0905005
254.251 4.22645 0.18109
218.829 5.43459 0.153318
182.34 2.27366 0.0743604
114.747 3.25045 0.127472
100.993 2.6967 0.0928675
115.545 1.3924 0.0841709
328.755 5.87152 0.242551
209.263 5.36113 0.222516
152.99 3.18483 0.1531
333.145 6.82533 0.281575
168.44 4.13267 0.19202
226.525 3.46311 0.126271
99.465 1.95257 0.0966513
155.336 3.44248 0.158888
139.589 3.00671 0.160323
295.463 5.40795 0.268291
136.016 2.195 0.117734
172.695 5.78974 0.280399
110.33 3.12875 0.191327
119.7 0.932191 0.0416048
158.561 4.05395 0.264403
285.959 8.36025 0.399794
149.081 2.28096 0.12468
179.546 3.83626 0.228924
135.15 3.36011 0.243915
73.983 1.92124 0.105713
211.031 5.15543 0.255543
86.7512 4.33776 0.273156
94.026 1.99095 0.146125
317.394 8.52449 0.517995
127.185 3.85526 0.276925
141.95 3.97752 0.306052
75.359 1.06304 0.081972
86.4749 3.49597 0.211466
112.256 4.374 0.33256
191.085 7.301 0.434884
91.4484 5.8771 0.349446
61.9718 4.45455 0.276634
203.625 6.38386 0.480047
59.9857 4.39187 0.298703
146.105 4.4089 0.278037
119.079 6.1796 0.545115
56.2173 4.94319 0.365728
84.0329 1.21867 0.0710544
124.603 3.40579 0.223797
121.096 2.35692 0.172872
60.0576 1.07077 0.0964013
117.365 3.14269 0.292266
57.642 4.10782 0.3821
122.035 6.31957 0.572869
237.495 12.0654 0.910964
90.483 2.57914 0.2491
92.2516 3.17126 0.290875
74.0695 3.44805 0.308136
152.186 8.75381 0.821584
88.0304 6.24885 0.621177
129.296 5.34004 0.569532
91.6205 2.33116 0.203832
71.9692 1.81019 0.1737
74.3194 2.8636 0.310186
108.03 5.26393 0.563259
34.6497 2.58755 0.244941
38.081 1.45558 0.160166
58.9186 3.29957 0.394891
84.3605 3.16405 0.379309
98.6918 5.17178 0.551592
97.905 2.66724 0.301226
131.001 6.75018 0.785661
48.2247 3.3883 0.433111
139.958 5.68695 0.694337
27.2235 3.54582 0.463144
82.2953 5.21088 0.584979
62.1041 1.97667 0.185466
72.9376 2.09443 0.266549
55.0182 2.95434 0.390773
83.6198 7.66289 0.760452
80.3392 3.23193 0.385341
59.4577 1.33615 0.152278
48.2783 2.14535 0.269907
50.9633 2.61057 0.3606
94.4297 4.32537 0.570294
63.9567 3.46672 0.516652
75.0045 4.62526 0.604326
82.8065 4.25617 0.525237
52.053 4.83782 0.74584
106.579 8.95185 1.20272
66.5137 3.77219 0.560047
39.5368 1.98816 0.250917
44.1181 5.2662 0.906832
60.1683 2.66015 0.371244
54.736 7.74133 1.09188
43.8401 3.78678 0.67678
52.0469 8.27888 1.07506
40.134 6.34939 1.04706
55.3952 3.45047 0.432001
35.7127 3.24043 0.476599
97.0196 7.6055 1.12374
64.1849 2.18541 0.372906
35.5317 0.595712 0.0871671
93.2697 9.08521 1.53449
52.7016 2.45496 0.496715
39.9796 3.55643 0.772292
31.9909 2.07134 0.363795
57.2329 5.40744 0.76821
83.4694 3.72235 0.615781
73.1784 4.77794 0.851941
16.5472 1.19107 0.176831
28.8666 3.10277 0.571417
31.4368 3.36762 0.511362
63.5136 3.4835 0.531648
38.2112 0.987204 0.232626
55.6666 8.65654 1.63065
49.9514 6.76257 1.0805
15.6479 1.1887 0.161031
13.5907 7.57593 1.52487
47.2914 6.65085 1.23058
54.8032 2.82084 0.56364
59.1695 4.38201 0.879884
47.971 4.72585 0.925103
37.8697 5.4689 1.26487
42.5272 7.71799 1.23916
24.2269 3.1728 0.765451
39.4523 3.99323 1.00855
63.5934 13.2053 2.39196
52.4438 4.67725 1.00547
53.5314 4.96083 0.900309
41.6701 4.46351 1.12781
15.1286 3.9614 0.941474
23.5367 5.52109 0.992158
4.74299 3.331 0.866828
39.6765 3.62507 0.658864
19.168 2.44151 0.487155
26.0787 3.70359 0.964155
50.265 5.67107 1.32443
46.6365 2.18402 0.376207
37.952 2.55952 0.619041
56.5216 5.14246 1.15287
26.586 3.92119 0.956585
57.6706 8.05279 1.75933
42.1486 5.02458 0.989134
35.4457 7.35897 1.80245
26.6246 1.28287 0.407183
49.4159 4.76378 1.06735
41.4905 4.64191 1.05827
62.3447 8.04567 2.03262
66.124 11.9293 2.94332
53.0988 11.5419 2.68526
30.6207 3.26752 0.84783
22.6157 4.94027 1.39429
84.4595 8.47883 1.8406
19.5173 1.66934 0.520314
56.8578 9.54079 2.57859
41.3766 7.10944 1.91426
27.8314 3.90404 0.988288
18.424 5.4119 1.40775
30.31 4.94788 1.32747
33.2136 4.27421 0.971588
30.3939 4.54459 1.25256
44.3822 3.46462 0.986674
16.7433 1.37524 0.358138
28.3148 2.06008 0.448254
37.9154 2.48403 0.722577
29.0896 5.03178 1.34822
53.0916 6.31165 1.89392
38.4317 3.94212 1.12539
6.46663 2.53201 0.817744
54.1067 8.18064 2.40906
43.6387 11.3104 3.06281
22.1517 2.11707 0.840714
12.2759 4.38581 1.58747
32.9694 4.74955 1.32838
21.9661 1.98815 0.633711
24.3773 2.72341 0.971493
25.6402 4.51467 1.74255
30.6369 2.50879 0.655046
45.2885 4.40299 1.20174
41.5349 4.47459 1.3856
44.0465 10.9093 3.06485
25.22 4.00188 1.60198
23.3515 3.13178 0.817226
28.6177 3.61326 1.37943
44.7126 5.81064 1.73928
20.5976 4.79637 1.34514
11.997 4.0232 1.60026
34.9754 8.07564 2.49594
25.9432 3.72335 1.19141
10.5659 3.57573 1.33597
19.7104 2.91757 1.00267
30.2198 4.65434 1.49822
22.5652 2.39362 0.822652
45.2855 7.67301 3.09963
21.6947 1.88589 0.691068
37.0614 9.44297 3.11649
21.5223 3.38384 1.74489
43.4906 7.46194 2.07383
13.4174 3.48431 1.05521
36.0877 7.97608 3.00969
20.7871 4.56259 1.57841
20.8538 2.80001 1.11833
14.8688 5.79404 2.11465
26.4255 5.16771 1.87439
41.3062 10.4809 4.02382
21.828 3.77729 1.20097
7.76714 1.02848 0.617548
24.244 3.71789 1.17794
28.8789 5.45193 2.13538
4.80613 3.16206 1.24666
25.3279 7.06521 2.82312
19.7958 4.12201 1.86194
21.9557 5.12265 1.76031
4.50583 2.5344 1.25821
49.7153 11.0878 5.07583
34.9019 8.99332 2.90641
38.0018 14.8693 5.30977
33.4831 5.86609 2.64313
15.7255 4.55103 1.96554
29.2304 7.93558 3.16867
20.2339 4.72174 1.79214
26.5402 3.24782 1.63035
9.58598 3.18181 1.23175
12.5385 1.90564 0.437579
16.3158 4.47912 1.75561
17.4495 7.26053 3.60727
16.9964 3.38725 1.24097
35.3843 5.35198 2.15795
12.1844 2.90557 1.1596
9.30979 3.89361 1.77748
11.7324 1.93463 1.243
12.0699 6.69395 2.68444
13.9233 1.00133 0.529745
26.7728 6.22218 3.02982
16.8388 5.17818 2.02169
10.9236 1.44165 0.771871
23.0062 3.70458 1.71514
12.653 3.70841 2.12876
18.2911 6.06621 2.06951
11.1223 4.10527 2.06586
25.4681 4.27856 2.30511
28.298 10.4747 4.82892
13.3122 3.44294 1.8294
13.5053 3.56572 2.14324
26.3515 8.4518 3.82796
6.1329 2.10443 1.00821
23.6165 4.72859 1.94408
15.1188 3.57523 2.15039
10.8122 1.92818 1.13371
5.86693 3.59244 2.44236
26.1036 8.83718 4.37757
26.8008 6.93067 3.14409
23.3987 5.22736 2.00867
13.7963 4.79577 1.96855
33.602 8.64323 3.84797
17.4861 8.54713 4.8651
6.25872 1.34328 0.935241
9.57987 3.61727 1.61558
8.7124 2.59872 1.6157
28.9939 7.47954 3.38519
21.128 12.6263 7.67187
15.9764 2.40547 1.14788
10.7042 4.87229 3.32655
40.5294 14.0137 7.41493
8.17574 1.86892 1.65182
12.3741 2.9101 1.26245
6.20982 4.36645 2.23857
10.3778 6.45546 3.26028
7.09895 1.09181 1.43453
16.279 5.22014 2.08496
16.9026 6.3156 2.81073
9.07685 7.47154 4.41515
14.3422 5.68671 3.13923
18.2754 5.92719 4.52255
21.1133 5.9536 2.45171
17.0065 5.89835 4.32389
17.3104 4.7591 2.63573
16.7759 5.34604 2.72881
6.02159 5.36726 2.63087
4.24864 3.37199 2.03665
18.3619 7.05479 3.35561
8.54884 4.02733 2.82068
15.8015 7.21396 4.17603
4.5603 1.68099 1.3616
13.0217 4.86421 3.00463
9.14153 3.75118 2.25163
8.63534 7.77836 4.93592
12.5855 4.40128 3.19874
19.0023 4.66417 3.02383
22.0998 4.33534 2.32363
4.19429 2.44946 1.793
21.228 4.23872 1.78606
14.8738 4.0893 3.0281
17.5182 4.14757 2.3207
16.6545 3.41522 2.01521
17.4054 4.18669 2.8313
22.9346 6.25908 4.42983
19.2114 8.5719 5.01028
9.51718 3.63209 2.47729
7.61734 4.3402 3.27223
11.3971 3.23235 1.85323
15.9285 8.14412 4.92984
13.6973 6.51417 3.92698
10.1578 4.04708 3.13152
3.34934 1.45974 0.877683
10.7483 6.41139 4.22554
10.7668 7.90923 6.25415
16.539 5.93699 3.2232
7.82742 1.40636 1.24558
20.0057 5.19007 3.61826
25.244 7.43091 5.24821
18.7196 6.25973 5.33534
4.63437 8.51278 5.11901
18.8872 5.26262 3.72035
16.898 4.73446 3.25413
5.29714 4.57113 2.70389
5.08588 4.79106 3.88898
12.3685 2.0798 1.13677
12.8063 4.16236 2.99252
5.61835 2.0533 1.46753
6.04702 4.28645 4.18306
8.65762 2.45845 1.24491
20.2985 8.39341 5.55889
7.3578 7.7617 6.66813
29.8305 9.87074 6.10068
9.23365 2.4923 2.09894
8.21182 2.61488 1.74051
5.60358 2.78289 2.15871
6.36343 6.57067 5.93575
10.8793 1.84138 1.10797
22.6441 11.0277 8.11672
18.2273 4.76048 3.43618
7.89665 2.95809 2.14867
5.47443 2.52861 2.19371
10.0505 2.83139 2.65845
9.56169 3.91922 2.44408
16.3596 5.84889 3.49853
13.5958 7.01882 7.26684
9.09926 4.40406 3.11498
9.65726 5.95171 3.79242
3.48348 4.01063 5.13514
23.6059 21.8663 14.9491
4.97624 2.73665 3.52698
19.5192 9.81877 7.15678
6.81797 1.97347 1.87737
6.80232 2.19475 1.37968
11.3107 5.80358 5.47157
20.998 7.00772 5.75286
5.54304 2.23854 1.5294
7.70872 2.4935 2.2186
13.3722 6.03843 3.92527
9.49411 4.45093 4.42018
16.3056 6.47932 5.38217
6.82964 5.01106 3.78954
3.81816 3.74825 3.58331
5.98344 3.81832 3.66157
12.6989 4.44451 2.95066
9.98757 2.89421 2.00071
9.73292 5.21556 4.34441
22.4373 9.71157 9.56537
3.23163 4.68287 3.06683
6.10171 3.45613 2.77463
2.10434 2.33427 2.51649
13.4013 8.76899 7.03794
5.20235 1.46891 2.09429
14.1266 7.16476 5.99061
5.90711 3.69269 4.62536
10.9191 6.14655 5.27185
11.7521 5.82546 7.42785
11.1758 6.62456 4.81697
6.04631 3.18932 3.12693
16.441 4.39439 2.89887
11.9659 2.49037 2.2748
10.3364 4.19942 3.04918
13.3228 4.95779 5.31525
10.421 4.3446 3.45517
7.04309 3.94261 4.92681
7.49137 2.93397 2.48139
13.7857 4.70678 4.00274
5.45302 3.64858 3.61704
8.28908 2.64012 2.5491
4.00936 1.70709 1.46615
17.4607 9.38956 8.49663
5.92747 1.68361 2.49428
3.78929 3.54875 2.22149
5.86254 3.20872 3.65969
5.8876 5.78241 4.69789
8.13623 2.70121 2.52414
3.82028 5.42795 6.6713
9.34169 1.90075 2.38365
8.01049 3.98573 3.85859
6.68439 5.47249 6.89923
17.9616 4.85093 2.58545
10.0888 5.00077 4.60193
16.6426 10.6889 8.21991
6.4007 2.34644 3.29315
6.08037 2.54522 2.36911
5.31705 6.76739 6.06576
4.82514 5.83081 7.97106
14.5924 6.12993 4.50052
11.9505 3.73158 4.25737
9.98572 3.26867 4.12342
11.607 5.57337 4.66721
11.9907 7.10581 7.51045
6.26692 3.28174 3.97925
10.2933 5.92103 4.56789
7.28723 6.69375 7.02258
5.39475 4.31975 5.23539
5.64656 4.82129 4.54895
12.9861 5.62098 6.36788
7.6502 6.37404 6.47913
4.43989 4.65354 6.56236
4.81522 2.93643 4.06544
24.3922 10.5521 7.82245
6.47318 5.02671 7.18554
5.73692 3.80267 4.64428
7.04264 7.90848 7.4289
11.2415 5.05502 5.62366
15.659 8.59435 6.79589
9.29007 5.08622 7.90149
2.52191 5.28695 4.47935
6.75862 4.83468 6.33034
4.48373 6.25079 6.41378
12.5641 5.05119 5.89774
8.08017 3.95711 2.44981
5.66782 3.23178 3.23155
5.62313 2.96032 3.63101
3.89314 4.11951 4.75611
7.43232 3.90539 3.49713
4.93468 1.26452 1.88601
11.5022 8.06506 9.52181
9.98608 6.32306 7.03685
6.82739 4.534 4.09539
2.67517 6.80824 11.9867
12.5195 5.13349 3.72976
6.66966 4.27682 7.18976
7.88233 3.62754 4.12249
6.23496 4.42926 6.74296
4.61674 2.99486 2.33718
5.09415 5.8602 4.5523
7.59232 2.98558 4.31196
7.78002 7.97363 9.29016
9.44328 5.68772 5.19008
5.19069 2.99498 4.00964
5.52936 6.18423 6.93272
6.44653 0.514981 0.173306
5.46237 1.99044 3.20441
10.6405 3.47826 3.82627
9.8449 7.43741 8.80579
3.1915 0.848654 2.08681
4.96557 3.9911 2.82198
1.17827 2.01346 2.09232
4.06247 3.50528 6.85394
6.95782 4.97776 4.16417
6.67388 6.3337 8.10689
2.38955 3.39531 5.42727
8.74356 5.2163 5.95568
15.4284 9.54681 8.70345
7.71736 9.65282 13.0806
6.25273 4.93133 4.88144
6.72705 3.40646 3.4316
3.44421 2.43761 3.68976
4.61466 4.12654 6.10452
6.19161 3.25433 3.8496
7.09318 3.2388 4.07969
1.80897 4.4039 11.0982
18.5233 10.1823 10.6067
4.3324 2.57267 2.87999
11.2579 4.83014 5.95646
6.19147 5.67117 8.15418
11.2139 3.31857 1.66513
10.9233 8.84257 12.393
6.83746 8.6458 9.91566
3.17917 3.11162 5.10211
7.53661 4.7944 5.96127
10.6541 9.50872 12.2696
8.75846 4.3707 6.38566
5.47322 3.82564 5.59023
8.81798 6.69014 8.60391
4.54657 4.1166 5.9032
9.8299 7.37378 7.69891
9.79486 13.4762 15.9535
3.53906 1.73385 4.47662
6.27841 3.2327 6.75239
3.58348 4.94588 4.14454
9.10428 7.73315 9.58728
6.40828 7.9633 11.5852
2.59531 2.43982 4.7107
6.06919 3.92575 3.98409
7.71491 5.41875 8.44742
6.6815 4.33225 6.3529
6.4424 7.43292 10.561
7.02248 4.9783 11.3473
16.5667 10.6231 7.59133
7.07194 4.33206 6.04931
9.23573 5.42527 7.58075
2.84599 5.8615 9.33234
3.76366 1.7304 1.20664
3.58653 1.60231 3.42144
3.06096 0.516339 0.761734
9.87449 5.02173 8.40875
3.60093 5.04986 5.53515
3.29564 2.31859 3.62476
7.38298 7.05584 10.7283
3.96895 1.9716 2.99983
1.80836 8.41056 9.49067
5.06149 4.76486 6.85728
9.93727 8.60364 16.8684
3.72481 2.29332 2.28358
4.02627 2.12969 4.51854
1.79841 1.8889 3.51674
3.35193 1.91769 1.15315
4.68732 5.46363 7.34786
2.82263 3.33894 5.49645
7.38382 2.45456 3.12677
5.8932 7.32641 8.57188
12.7512 13.7411 18.6731
5.84254 4.09411 7.66273
6.58462 6.17816 8.62872
5.39738 2.70657 4.31749
3.02315 3.43119 3.13698
4.19602 4.51268 5.89051
5.75294 2.96671 5.06604
2.52678 1.41482 3.02304
4.35501 2.56689 3.38296
4.55153 3.27258 7.03473
2.16819 4.59707 5.4482
7.59233 6.56577 7.48842
5.1201 4.16194 8.43093
4.71897 2.25498 6.3995
2.63164 6.17193 7.77161
6.42766 7.60059 13.1475
9.91166 6.66604 9.72787
4.48851 2.83425 7.03365
7.85285 8.71164 10.6422
7.34584 9.31448 13.2078
5.88847 4.91506 8.94457
4.99937 3.47173 2.47212
5.84843 7.86121 10.6844
1.25777 6.60017 15.5472
9.05771 2.96491 4.36117
6.28436 4.63673 8.27071
5.22802 4.42818 4.35473
1.53441 5.98111 11.6228
5.16504 1.88983 3.16802
5.31566 4.70262 6.82258
8.59395 7.03651 11.5706
5.54823 4.09198 7.09162
5.70132 6.82075 8.97783
3.58361 4.86301 7.73657
4.22721 4.33779 8.58951
5.24944 5.06196 14.5334
7.64206 5.613 6.38086
8.41397 6.03459 7.51095
10.0252 6.14574 8.93833
3.81249 3.99936 5.86737
5.9885 4.89061 8.9263
6.44235 5.37891 8.6313
2.96622 3.84916 6.48534
3.28719 2.53899 4.76278
6.41938 7.51089 14.2879
6.21209 3.82593 4.78183
3.34377 2.43616 8.05103
9.44669 6.79025 10.7185
14.3212 10.9948 14.2017
3.40491 4.2917 8.05157
5.77934 5.94015 11.831
9.58977 10.0784 12.349
3.07512 6.94353 12.2372
1.8824 0.964794 3.3304
5.51726 3.007 5.91698
1.69014 2.14092 5.22418
10.1811 5.94185 8.58287
6.55387 8.10182 11.555
1.98267 1.53781 3.1066
3.17764 2.44302 4.22959
2.94705 5.04099 8.90409
5.25951 2.15592 5.54825
8.49623 6.61727 11.1049
3.54682 4.14518 9.95116
4.52286 4.61187 9.38902
4.94966 9.80836 11.087
4.59415 5.018 8.87801
4.63787 7.37418 12.5255
0.853935 5.68301 9.67353
5.77951 3.62023 8.75836
6.73189 4.67315 9.51472
5.23191 3.33654 6.15552
6.31137 6.0212 9.6852
2.77176 1.52864 3.40544
2.01234 4.12554 5.58786
6.05204 5.41526 9.11383
2.96312 3.39272 5.70921
1.82095 3.2541 6.7267
1.72578 4.67132 16.4758
11.6664 5.78444 4.46531
5.85528 11.0903 16.0185
5.25443 4.3817 5.97524
2.83854 4.74056 11.1942
4.85355 2.68473 4.57631
3.83362 2.99521 11.7421
5.38426 5.12708 4.68602
4.44091 3.54678 2.79313
1.6945 2.35915 3.15464
4.16664 3.50751 8.28361
6.1498 11.8905 19.901
5.19749 8.82096 18.3276
7.72412 4.67838 7.96998
5.54984 4.16896 9.84337
3.01595 2.85161 6.46311
2.22154 2.2581 2.72218
2.22667 6.53593 10.9283
5.16721 8.04941 13.0412
1.75665 1.41033 5.84049
6.00411 6.02611 17.415
6.86955 3.99052 8.70556
6.72651 8.4806 19.7274
14.1857 13.2615 13.2712
4.80461 5.83703 16.4213
3.70173 7.45213 11.5707
5.55353 4.02725 9.532
4.85925 6.4764 7.64765
3.98448 5.75256 13.317
1.90593 4.12831 7.23469
3.88964 5.81535 10.9257
3.80178 1.96809 4.32478
3.51701 5.95551 12.9964
6.93396 7.0132 18.0578
6.0925 5.74986 11.0172
5.24532 4.28247 5.50851
7.58214 8.16988 16.8052
8.66406 6.09351 8.77507
3.37008 2.82414 7.88357
4.89075 2.38019 4.172
5.19752 6.60631 15.4957
3.38155 4.84113 9.77793
1.97285 2.98308 7.82243
5.35639 3.80397 5.80923
3.89732 5.5923 16.0026
6.09864 5.82024 10.8284
5.47877 5.87363 8.11767
2.23666 4.32029 6.42736
2.26167 7.6226 16.4654
6.8135 4.37815 9.85669
3.88105 3.1944 7.34249
2.22081 8.75489 19.9114
4.15233 5.81419 12.6661
3.38516 7.77065 14.8042
1.93287 5.07044 17.3698
6.13042 5.12206 6.92744
7.62047 10.323 21.8278
3.57192 4.81168 7.87313
4.87892 5.10897 10.0044
4.15226 6.04279 16.704
6.65054 8.21664 16.8906
8.43452 5.42444 7.94688
5.89889 9.87099 28.1834
5.51046 7.28767 9.95116
2.41361 5.441 11.0727
2.80014 6.9078 18.2928
5.31513 4.99203 7.21658
3.68417 5.24769 10.5529
3.74051 7.5721 15.5428
1.46968 6.93845 17.2626
7.05082 7.13872 15.9412
4.15614 3.59691 6.1093
6.15841 6.21235 14.7847
2.75246 4.70057 9.33876
4.93866 2.70167 3.66346
4.75406 7.12699 15.8179
1.78056 2.02803 6.69175
6.06435 4.34657 4.64058
3.66835 6.8567 10.7493
1.88682 3.1774 9.61691
3.67242 4.37185 8.75092
2.42115 10.2836 19.2526
5.56811 7.07724 19.3674
3.52894 5.83379 6.32542
2.0345 3.48569 5.81705
2.54953 4.32014 10.8891
4.07432 1.4486 3.07409
4.68011 3.78382 5.58015
4.64177 5.75703 17.1622
5.32841 13.4418 22.8226
2.65854 2.68019 14.6247
4.38711 2.10318 3.56786
0.999827 3.53585 4.03091
1.16821 3.51946 10.8962
4.20678 2.60694 7.50914
2.9625 13.0184 24.1645
5.7981 6.84346 13.2106
3.55949 5.57514 20.8
5.11288 3.4343 6.81102
4.86092 6.15636 11.1014
3.45181 2.68129 4.58478
4.10093 7.96624 17.7417
3.49682 1.24365 9.13803
5.23478 5.81908 14.7796
8.1359 9.74731 11.3255
1.4515 4.37225 12.1578
6.32652 6.1472 13.0554
2.37119 2.05566 3.85059
2.66497 8.5284 17.2651
3.18376 1.56283 5.49525
2.39635 10.4691 23.8831
6.99139 6.16779 17.8255
6.47015 3.3749 5.21546
6.07069 8.89668 14.4349
3.92151 4.99632 11.9584
4.2719 8.34651 21.1526
2.4919 2.042 11.4784
4.44707 14.1301 31.139
7.04657 9.84875 20.1091
3.37654 2.60929 4.83151
3.3218 3.27305 12.536
3.89177 6.23371 19.8547
4.76155 7.10644 22.8261
10.1941 11.3382 13.3531
2.22805 6.51614 10.1522
2.54134 1.70521 3.19198
2.03055 3.59618 10.2707
5.32454 4.06845 8.97082
2.21307 3.91743 13.5928
5.24021 4.94324 15.655
4.37534 6.56446 13.9634
3.04637 0.923905 5.24176
3.35065 4.19351 17.9799
8.48288 8.74803 13.2865
8.09597 12.1661 14.9676
2.80302 3.91543 13.2156
3.65574 3.84527 13.6892
4.79945 7.11339 14.1912
4.62151 4.51578 7.39615
2.5059 13.0655 38.0497
6.92083 4.80414 6.61398
3.73686 6.55052 18.3749
3.30727 3.93989 11.4239
5.33979 8.72334 18.4149
2.87687 5.92915 12.0984
4.80701 9.66212 21.8352
5.79809 5.38349 9.98382
3.19119 8.00836 22.4319
4.33915 4.35012 9.01583
2.83895 4.00855 17.8757
6.01006 3.22606 7.50665
3.41135 5.41642 12.0122
4.00062 2.49573 7.23415
4.01554 5.37852 12.2016
0.618237 3.42932 8.94101
1.67097 3.74428 14.5722
3.4273 9.64389 17.6206
3.83755 4.90149 19.0157
4.86667 4.39884 10.3969
3.81706 5.6535 21.0221
4.14686 1.19097 13.19
8.79367 7.43956 18.666
9.34744 10.7222 17.7005
5.09105 9.98408 16.5869
3.96526 2.97618 8.46926
1.68587 4.65747 10.9546
3.66239 4.53175 13.1618
2.95755 4.08617 20.3582
7.31183 9.1292 17.2337
3.68435 5.05128 7.61897
2.16641 2.65425 7.06008
4.80202 7.10102 15.5285
0.79761 5.17882 15.2169
5.79898 8.33458 28.253
6.53382 4.34245 8.6023
3.18392 6.13317 11.3804
4.57492 3.04289 6.48075
3.89156 7.11149 19.1869
2.06994 1.50576 6.32399
4.78605 5.79863 8.94862
3.02298 3.07176 5.16815
3.92414 7.39437 17.6788
2.99155 3.49304 15.44
3.30121 6.71558 16.4721
8.34131 12.7802 30.086
0.977636 4.6229 22.6906
6.54751 7.42377 15.3976
3.01211 5.79058 14.882
3.04279 5.56185 8.1777
4.25956 6.93595 19.7795
0.426273 5.89655 15.9018
4.71066 4.06649 6.2521
1.77064 2.72153 8.41961
3.1342 7.47242 24.5469
2.71931 1.29017 7.22151
1.95606 4.43898 8.30287
1.48968 0.883569 2.60617
0.986898 2.14116 3.11787
2.0505 4.34968 15.5989
4.83869 6.9271 14.6889
2.4847 2.74876 6.47975
3.66033 4.79963 11.3586
5.75531 7.40196 19.2846
4.07892 6.88491 17.9269
1.67574 2.63978 15.6905
2.90319 5.65856 24.5877
3.69232 5.05484 9.35615
1.90525 6.37517 14.9914
2.44566 4.00848 5.58856
2.00524 1.86028 8.53798
3.22584 2.3349 3.98616
3.10326 5.97856 14.6077
3.80418 3.477 11.7252
2.16095 5.56906 15.331
2.15134 0.509929 5.46915
2.54777 2.97211 6.85768
3.6746 8.86412 18.1105
1.14338 4.14708 19.9713
3.99267 5.37708 15.8339
4.51676 5.57999 10.1811
3.14593 4.68485 19.6649
4.86326 4.14153 13.3526
6.68156 11.6465 26.8419
2.04147 5.9208 17.5129
2.11573 12.9111 30.5501
7.05679 7.51021 18.3743
3.30651 12.3153 43.4908
5.45835 6.60042 14.414
3.35637 4.17908 7.0487
3.55984 2.33368 9.54427
4.86377 6.96466 23.8321
4.08121 6.81208 14.8013
3.3053 9.57059 22.34
2.81081 3.45538 15.0677
6.84197 9.43711 20.5583
3.22753 6.9953 27.6675
1.7419 5.12394 14.4284
1.90014 4.9614 13.9627
2.78363 5.65465 15.2273
2.54688 4.18869 8.86016
1.20139 3.40853 14.2668
3.66258 6.39333 19.7564
2.35075 8.51137 24.5627
5.17347 5.94962 22.622
2.90131 9.24232 16.2258
3.832 9.03301 26.2505
5.40215 5.12807 12.3481
2.87621 8.85054 19.9563
1.98287 1.69079 12.3192
1.60672 3.3603 7.66841
3.4044 6.30145 12.7646
1.82166 4.94366 25.5837
5.16229 5.09997 7.04337
1.84532 7.62057 19.3939
3.38804 3.16391 18.8841
5.06813 6.761 8.38494
1.89107 3.04041 15.176
2.49942 2.59715 9.28325
4.07867 6.94791 19.6172
1.67496 6.2422 26.7939
3.05778 2.0731 13.2775
3.41506 7.22397 17.3357
5.68855 5.34796 8.64861
1.7952 5.01823 10.3686
2.99485 4.99506 11.9784
3.36093 7.72929 21.2382
3.07013 3.94505 21.6445
3.23892 6.58219 11.3282
0.907368 4.98171 19.1267
2.11909 2.70351 9.36243
2.72839 2.67279 10.811
1.38041 5.20821 16.7689
3.68167 5.07796 16.7368
5.70146 9.99102 21.5945
2.4471 3.10205 7.08886
1.31331 1.8892 15.364
3.08758 7.77174 25.5901
3.88226 6.05474 23.0865
5.57814 9.08396 13.671
1.68531 2.55395 8.46283
2.70137 5.33759 18.9573
1.5935 4.34199 17.0487
2.89356 3.10226 8.56264
3.29485 14.4413 35.365
4.91015 3.69141 5.71963
1.9195 1.00395 4.81668
1.2882 6.12678 21.4512
4.05537 9.53401 29.7196
2.98213 4.77912 20.856
6.29244 7.93787 17.645
3.53298 7.64811 24.5009
2.54109 4.87022 17.886
2.70167 6.55635 9.1882
0.408465 2.7541 12.7151
2.77463 4.07944 18.1513
1.46983 6.92427 11.4828
1.03502 6.1628 18.0533
3.3744 3.63661 19.9614
4.84712 8.35993 21.1476
2.85938 4.55535 9.34048
2.21738 5.80619 16.8439
2.53723 2.19145 21.4193
4.70937 6.49686 22.0076
6.8034 11.3906 16.4095
2.03559 5.5625 30.244
1.77574 6.75185 16.5238
2.50104 5.08103 13.7036
4.3282 11.4726 36.3407
3.20691 7.64215 21.6402
1.6832 8.09326 33.8924
5.4758 5.38861 7.83621
3.02068 4.28663 17.2238
3.90169 3.92727 20.4615
3.57969 6.36412 7.08563
1.56432 5.88512 27.4552
4.77856 6.66888 10.3434
1.23483 4.00621 13.6275
5.12983 4.86077 11.6882
1.0819 7.17973 22.4681
3.03482 6.25256 19.6652
1.89926 8.28108 32.1377
5.35804 9.06198 33.5518
5.40359 8.45896 23.8191
1.93034 5.99913 7.41348
1.75669 2.78051 11.721
2.78878 4.86321 9.51331
0.858261 4.31456 18.6253
3.11817 5.70497 16.605
3.91482 12.7263 31.4459
3.34334 6.48993 24.127
3.4616 5.02366 19.1828
1.54316 5.62429 17.7619
2.38361 3.40343 13.9023
2.89195 3.26904 17.5771
4.51418 6.62236 16.6292
1.26631 6.66356 24.2469
5.9717 5.95057 18.4524
2.21715 3.3925 28.6224
8.9087 14.2983 24.0139
2.17575 9.00834 29.9709
2.31809 4.24327 11.8231
1.02045 2.39041 8.52093
1.1006 3.79637 7.51493
1.52905 4.95542 27.9636
5.24678 7.99353 24.0251
3.67904 8.69477 25.7043
3.04794 11.0238 40.3044
2.80489 3.57634 4.22824
0.620932 3.78889 18.0507
2.74813 6.48435 15.7632
1.24434 5.27029 25.7383
2.46996 6.33441 10.3736
1.43125 2.44421 22.1545
3.89408 15.7743 47.4595
3.66358 7.34895 11.5177
2.23312 4.20864 13.9003
1.69564 4.02119 13.8896
1.30823 8.25976 21.2043
2.15908 3.18122 20.0822
3.01799 21.2344 46.2147
4.47895 3.33552 18.237
2.66164 3.04831 15.2068
3.01789 3.98051 10.3813
2.83857 1.76502 8.08327
2.07734 2.68243 13.7498
2.93345 10.0654 22.2108
2.54963 2.79328 9.46597
2.88461 6.87702 20.3212
3.86884 12.2089 46.2025
5.74388 5.09879 12.619
2.62379 8.69742 24.987
3.97104 7.74511 41.7033
4.55654 5.99059 18.1641
6.04164 17.6126 35.932
2.79721 1.72681 11.2673
3.09865 5.51257 37.8679
3.36758 4.85475 2.70915
1.10148 5.94655 30.9226
6.2599 12.3595 38.6483
3.61608 3.02596 19.8475
4.63261 2.46477 9.61354
3.75071 5.77217 23.9813
3.58843 6.37453 15.2045
0.559911 4.23985 24.5846
4.6338 9.1479 15.542
3.03278 3.36339 11.6008
2.23207 4.01269 13.4408
1.48152 5.11456 27.7803
4.14125 11.7605 61.8949
8.62365 10.6086 14.5466
2.1968 5.96072 39.3279
7.10503 12.4719 27.4124
2.15269 11.4833 26.5854
3.69701 5.87975 27.1288
2.60061 3.30316 14.8002
3.61817 7.21227 28.8001
2.12822 7.29809 28.2988
1.41795 8.6724 17.5076
1.31697 4.02091 5.73783
2.69241 12.3544 46.4272
2.98814 5.44234 19.365
1.8779 3.58183 6.61027
2.45675 7.79023 20.3934
2.2754 7.7271 13.8909
1.56972 6.51433 28.4035
2.72988 6.1747 36.316
4.86115 7.82479 8.03766
2.78823 5.78735 23.9239
3.3433 6.65275 26.0565
2.91313 8.93784 23.1329
4.78535 8.13618 30.8594
1.25442 4.04003 20.3635
3.06778 4.24306 27.6043
3.21918 6.17313 17.6538
3.57595 3.83723 5.74731
1.60702 1.57686 10.6694
3.74162 4.48195 28.4604
3.9483 5.52934 10.2333
3.26356 14.0565 32.9888
1.16362 0.81318 8.50924
1.28385 2.86778 29.0991
3.31357 8.70759 18.1411
1.44916 2.26671 11.499
1.33065 5.35907 6.85012
1.78208 5.2305 17.9178
1.46027 5.00708 25.179
2.16816 7.90397 22.9479
3.8254 6.84521 15.1221
2.25101 3.02482 6.19938
1.67746 4.08705 17.1817
1.17979 2.35804 7.01869
1.37719 2.10142 12.5144
0.946139 6.99308 27.8771
3.68985 5.98124 23.8844
3.25178 2.11681 1.31443
1.71295 3.43882 10.835
0.858338 6.38041 17.4058
2.29313 4.17678 22.5007
4.47557 4.80676 13.1648
2.44938 3.41198 9.96591
1.06457 4.47858 11.1277
2.80499 6.68469 36.6086
2.33876 5.35323 39.026
4.27466 10.3214 24.563
3.06941 3.5365 22.4273
2.26747 8.12391 12.0182
2.15078 9.68753 22.7053
1.39427 6.5331 19.9979
2.78369 5.01323 21.9922
2.58382 4.8584 25.0435
2.9243 3.6044 35.6848
5.50428 6.04777 36.6481
5.89225 4.85597 42.296
5.66594 10.8994 13.5415
3.66703 14.3619 30.9037
2.86116 2.40121 5.87067
1.30587 2.44246 31.4826
4.24313 8.30478 13.6271
2.10379 4.32079 9.30549
3.45115 6.05092 14.4275
3.7393 2.9104 5.74878
2.76137 7.49332 17.9085
1.54738 8.23688 34.3728
3.18664 9.41125 20.3816
2.25561 11.3759 44.4209
3.55585 4.76018 16.0162
2.46325 2.74184 6.9287
2.18844 4.84672 23.6884
1.61739 4.08964 12.7243
1.13616 3.25515 18.6971
0.572935 3.80171 8.27231
1.15249 7.43348 15.1503
1.75397 6.72508 28.0946
1.63319 5.18227 10.9962
2.38021 7.89652 24.2144
2.94138 4.33194 14.7318
2.73387 4.99544 23.1335
2.86174 2.99375 19.3639
3.87326 9.06848 26.9042
0.601354 12.2863 33.4681
3.11012 4.04428 23.5058
2.5329 7.84816 30.7221
4.33136 3.78508 32.7391
5.77832 11.3609 41.8047
3.53564 6.03512 21.6298
3.43876 7.12606 20.6946
3.49117 4.75786 32.5602
3.16774 10.6453 31.1201
4.46122 7.85473 41.5236
4.21962 4.5735 15.9409
1.72314 4.2109 13.2313
0.368561 6.20189 36.4253
4.3271 7.81387 11.6121
3.68472 7.76967 28.6268
1.99817 14.5578 37.4551
4.1714 3.13761 13.6099
2.14108 4.47279 27.974
4.57401 4.03096 19.9009
3.38685 9.94529 24.5019
2.76951 1.55327 21.0442
5.39231 5.66329 10.1447
2.80853 6.15101 25.6384
2.95429 5.80057 25.6142
2.44302 3.64639 8.5562
2.07435 3.00047 12.9283
2.54237 1.32055 9.27788
2.848 7.98077 9.32172
1.20313 0.827443 4.5124
2.8297 6.29221 15.33
1.75509 9.83289 31.9573
3.18399 5.75784 25.9798
1.89945 8.23904 20.5039
2.94575 6.0977 32.1015
3.14704 10.9069 49.6077
5.39224 5.50446 19.3048
2.78469 7.48843 35.4197
3.03244 9.47139 27.4905
2.87676 5.85001 17.9626
0.44216 2.27354 13.3247
1.6268 2.81081 11.263
1.83225 2.82737 6.48167
1.09424 0.749879 4.71223
1.8339 3.57142 16.939
1.66683 2.62539 7.35156
1.85231 4.23103 13.9896
2.46817 1.76805 24.9816
4.4772 5.79095 17.6058
1.58475 3.1323 11.32
1.12954 2.72822 23.1073
4.82497 4.24656 27.9499
3.77177 12.2493 18.6924
1.87331 9.14317 39.0414
4.13361 6.79581 9.92248
1.5535 3.32173 23.6896
2.17876 8.42171 22.787
3.72507 1.64491 28.2785
4.95744 8.80133 17.5055
1.0985 5.05074 14.034
1.30033 2.99096 17.1812
2.53933 9.37403 25.4583
1.90978 5.68655 15.163
2.3328 1.70673 6.40381
1.59848 3.25646 19.4853
2.12446 4.63727 18.8383
0.946256 3.99722 12.1478
1.28289 8.59488 36.0251
3.8188 9.92741 53.6307
7.78501 11.432 23.3302
2.44558 3.35605 11.3252
0.925829 3.73224 28.1489
2.63826 7.65211 21.4893
2.59117 5.17335 17.4125
1.73151 9.04451 25.576
1.44912 3.22382 32.2673
4.02469 4.06309 17.6987
1.94743 3.1009 12.4864
2.51452 6.1132 21.6598
2.06183 3.74475 14.9867
2.56311 2.48385 4.04727
1.09358 4.47065 30.0217
4.28006 7.29982 19.7051
0.789512 6.55678 19.5697
1.82872 5.6632 19.421
3.77033 2.79791 9.38566
1.24511 3.35119 19.3562
3.423 3.89437 17.666
1.41409 10.2907 24.1606
3.24771 2.87435 46.2579
7.41516 10.0369 21.891
3.23381 5.39877 26.1129
3.40156 7.17046 14.5519
1.94355 3.90883 10.4142
2.34414 6.51291 15.1055
1.88945 4.21462 16.0016
2.39606 6.77927 30.0423
1.66768 6.23228 30.6991
2.30041 5.31084 28.631
4.0636 4.45656 17.7077
1.87022 5.80308 34.3218
4.26774 14.1619 27.0826
2.24572 1.23326 8.62477
0.90061 5.32767 28.2915
3.7416 7.46343 25.4106
3.41468 6.32741 33.3733
2.67039 8.17061 42.0572
3.61217 7.1749 29.8333
4.60916 6.74525 16.4828
2.49912 6.52851 38.184
3.79702 9.10291 31.7473
2.92382 11.6316 28.515
3.15014 3.40493 14.4987
1.25116 2.50416 23.4444
2.2811 7.23101 10.7936
1.68176 6.44684 20.8228
4.14008 14.2507 44.6347
2.90682 2.75119 7.8179
0.699144 2.52173 21.2566
1.41185 3.71443 6.80585
1.25628 3.97583 22.0904
2.71653 3.09521 13.9507
1.95662 1.8176 35.3826
4.38755 9.67915 18.0377
3.06147 10.1192 40.2757
4.21001 12.1092 38.8813
4.13024 5.14749 16.0286
2.2882 3.07031 9.24623
1.76283 4.7571 29.4987
5.29665 15.4231 53.1734
5.04824 9.81019 24.5221
1.44625 5.02765 18.2698
0.693296 6.39579 61.2551
3.13455 7.21639 28.981
2.25684 3.45057 20.3472
1.81061 8.5912 13.7482
1.87292 7.91419 21.6854
1.76291 5.11553 12.5708
2.25054 4.92675 14.9013
2.88103 4.23629 14.9384
0.802731 7.60191 53.5426
6.18959 7.05179 21.9775
2.42998 6.70233 23.8854
3.12917 5.5605 17.5003
3.35404 5.39176 21.5778
1.69818 5.04502 27.3693
3.69334 2.13536 6.21834
1.81716 5.15806 30.7312
3.72755 10.7986 25.4475
1.84928 2.61612 5.40817
1.12947 1.04207 11.9496
2.48623 3.76009 3.44875
1.64028 15.0867 70.6383
4.34638 5.88924 30.2176
2.93706 5.27747 3.7787
0.863267 3.35367 20.0893
2.64669 3.8332 23.689
2.68276 7.25946 25.7452
3.49272 4.62942 14.7495
2.93907 7.97423 29.7655
3.53755 8.61523 27.1149
3.49366 7.30228 49.704
3.45397 8.51238 8.65255
0.664338 3.93986 24.0976
2.09551 7.96913 18.2285
1.09828 1.29317 23.7905
1.90858 5.99902 17.6098
1.54686 4.01142 14.3123
2.42921 3.61675 9.8918
0.869909 4.45918 12.4515
2.50455 1.59705 11.3443
1.83616 3.70608 25.8007
1.6086 4.59163 7.28483
2.11766 4.79364 17.5111
1.16965 4.04136 11.0231
1.13446 3.91971 25.1031
2.67684 7.25804 24.6669
2.58729 4.84756 25.2116
3.73068 5.36723 8.76946
1.20519 2.92457 14.5082
1.4095 4.91208 16.4567
0.604289 3.70205 34.5128
1.891 6.06572 18.9697
2.43253 10.8603 39.8893
3.60674 9.34679 32.8127
3.25804 7.00031 57.4111
2.6377 9.31106 11.0379
2.29822 6.49566 35.8721
2.30198 5.40088 27.5077
3.49637 8.40446 32.0965
3.71528 7.89512 18.076
1.82138 2.03729 3.05845
1.03342 2.91391 30.55
2.40939 7.52247 21.9197
1.04071 2.60448 20.1482
2.26865 7.4588 21.199
2.94234 5.6497 37.2089
3.51405 7.67294 11.6015
1.10997 12.1264 35.6315
2.61197 3.27625 12.1805
2.25655 3.61267 25.4147
1.84706 11.0617 24.4643
3.45482 3.49051 23.7899
2.79207 1.92041 27.9713
3.11847 4.75739 42.6521
5.56254 16.8723 27.371
2.06239 7.67702 33.7401
4.77476 10.5245 24.0402
0.647352 2.14223 18.9156
1.69694 4.6191 7.84915
1.45739 4.0911 31.1805
3.09208 3.76143 20.5101
1.26302 9.4121 53.626
4.10568 18.4219 42.6506
3.80719 0.691722 16.3907
2.52527 3.3986 2.13015
1.11311 3.21104 31.4192
3.17786 7.76296 44.7715
6.88972 18.1454 40.1236
2.34625 4.50723 25.888
1.46106 12.1776 40.9025
3.54734 4.7675 8.80869
1.38548 2.38148 23.958
1.96824 3.75295 10.1521
1.30746 7.84019 26.9805
3.64275 6.36642 25.165
1.93267 3.63702 33.812
4.02844 3.9359 17.5156
3.39909 10.6477 31.1789
2.76147 3.04678 20.4071
1.58936 4.89434 12.8685
2.96507 8.14518 37.8899
1.80066 6.02543 15.3997
1.63015 5.73406 30.9467
2.9014 4.8508 11.3765
2.28161 1.84522 8.11353
1.82262 3.43938 18.4619
1.87188 5.04285 10.6121
1.42624 3.53521 28.616
4.20294 7.06843 16.2199
1.65162 1.15274 5.07371
1.12147 2.15807 6.3042
2.04534 5.90955 18.8976
2.01473 1.35955 18.2556
2.51598 7.264 24.467
2.55065 7.27271 26.0743
2.72312 4.32564 26.0204
2.36248 6.99328 23.3063
2.04609 12.6826 35.1136
1.76767 2.2715 37.9472
2.87418 14.6133 35.381
4.10963 2.19181 24.0556
3.2524 7.20827 9.11294
0.746061 4.90524 57.3601
3.01347 5.87175 13.2058
1.77541 11.8225 40.1204
3.17339 6.30778 37.9116
3.97199 5.97169 23.4851
3.22885 8.47721 31.432
4.58982 5.33019 16.4563
1.78224 2.43134 6.53993
1.50916 7.55256 22.0052
3.03394 2.83194 10.6214
1.23879 4.64225 40.5727
3.99414 10.6745 21.9394
2.45426 3.81998 12.5779
1.16907 7.40714 30.423
1.3073 2.80328 34.8723
4.06594 12.2402 20.9403
2.60995 4.96834 29.507
2.19994 9.89917 34.1546
2.72736 3.75406 11.6648
0.954955 2.70484 16.4093
1.40166 4.43857 5.89274
1.11971 1.22266 14.0591
1.52115 10.4928 36.1958
2.51962 1.72299 25.3356
1.95222 4.33842 15.9403
1.53653 4.79532 45.6398
2.38084 11.4874 20.5489
1.97931 8.76198 22.8248
2.90722 4.64895 27.5844
2.27685 3.36239 11.3393
0.799865 10.4673 60.2912
4.55476 7.9074 16.907
2.27636 5.4073 11.02
1.62448 0 0