# pn-170911/RbIIA-av-USNO-1280-1959.psd
# Power spectrum* (dif=0,1,2) (really just |FT|^2)
# NOTE: only the first half! (symmetric)
# weeks: 1280-1959
# 56 clock-days, 15 excluded
# PSD: 1441
9920.65 0.178172 0.0069313
152295 1.92469 0.00351276
978934 23.2595 0.00375903
143892 5.04847 0.00346731
92857.1 6.2425 0.00424118
55690.8 5.57738 0.00385332
30207.7 4.57398 0.00394667
22422.5 3.96454 0.00325072
14808.2 3.90616 0.00602007
14396.7 4.18818 0.00565953
12252.3 4.37661 0.00603614
7372.73 3.32573 0.00593286
7035.9 3.99571 0.00610551
8105.2 4.85078 0.00823386
4895.8 3.85599 0.0074571
4313.53 3.3959 0.0062832
4491 3.95345 0.00907634
3704.76 4.1643 0.00773993
3364.32 3.97213 0.00839505
2743.73 3.91537 0.00946662
2711.61 3.4126 0.00909741
2384.44 3.56277 0.0120358
2600.02 4.80444 0.0158973
2524.51 5.52131 0.015174
1419.42 2.97338 0.0113772
2044.97 4.26019 0.0182285
1790.28 4.22994 0.0144911
1263.63 3.80269 0.0160354
1122.83 2.96429 0.0153189
1194.5 3.21967 0.0168094
1120.4 4.0386 0.0222108
1191.72 4.17892 0.0187477
862.664 3.29691 0.0181725
1193 4.56921 0.0212242
654.36 2.67773 0.018829
1126.73 5.36666 0.0340855
903.021 4.61671 0.0329568
841.16 4.12336 0.03048
801.665 4.9467 0.0357507
590.74 3.3093 0.0267807
563.687 3.12765 0.027249
537.635 3.62145 0.0334763
765.598 5.98577 0.0505029
542.002 3.61244 0.0364583
454.62 3.13869 0.0308861
496.595 4.10552 0.0434478
550.435 4.08768 0.043527
441.685 4.26426 0.0506153
443.046 3.82916 0.044979
367.338 3.09448 0.039677
447.3 4.46994 0.0529916
440.957 3.79098 0.0460623
417.861 4.83269 0.0696999
266.471 2.76737 0.0407869
358.104 3.15135 0.0482635
300.263 3.3987 0.0545161
290.194 3.52208 0.0516091
252.628 3.04642 0.0482327
277.322 3.33764 0.0585782
282.862 3.82339 0.0656462
277.979 3.24559 0.0587538
301.06 4.59945 0.086952
257.369 3.95458 0.0789373
291.958 4.73259 0.0951293
223.971 3.27822 0.0713612
240.574 3.73818 0.0838506
189.379 2.73979 0.0601754
230.139 3.51994 0.0708577
248.123 4.73979 0.103169
182.522 3.35783 0.0761929
179.131 3.26792 0.0824765
190.96 3.48735 0.0917154
169.065 3.34298 0.0893472
116.312 2.76214 0.0739222
164.014 3.20826 0.0911791
172.4 3.60206 0.0997604
180.477 2.85207 0.0853717
167.208 2.73514 0.076274
155.766 3.2903 0.10273
141.934 3.24109 0.102598
141.081 2.82572 0.0909658
161.669 3.67488 0.122399
120.486 2.8077 0.0952399
129.916 2.96527 0.107524
156.252 3.4622 0.116257
131.918 2.94675 0.107393
135.256 3.2026 0.111548
138.4 3.31331 0.124453
137.189 3.57323 0.131065
137.212 4.15854 0.159807
132.385 3.67485 0.142219
136.001 3.82193 0.149419
90.1953 2.22102 0.0934765
124.582 4.07238 0.170343
112.234 3.4295 0.148796
135.908 4.38489 0.187141
72.1452 2.54873 0.117734
114.165 3.42239 0.163684
104.937 2.92351 0.12981
95.337 3.17727 0.15271
106.67 3.16434 0.155411
88.4365 3.7454 0.186708
105.531 4.52783 0.228904
93.9376 3.58457 0.182993
91.6773 4.12064 0.225918
73.0452 3.20834 0.178402
85.8763 3.7157 0.202151
75.8591 2.83221 0.158896
104.099 4.16415 0.23189
93.1847 4.26499 0.244352
73.4686 3.21521 0.189276
75.7041 3.55159 0.214165
101.081 4.3992 0.259518
71.9053 2.81729 0.172482
56.4417 2.55887 0.159015
69.0227 3.60512 0.233957
97.6966 5.0351 0.322371
85.108 3.71585 0.246491
96.6538 4.75295 0.315618
67.5239 3.5217 0.229455
72.9748 3.39532 0.238051
63.8738 3.71102 0.255327
74.4176 4.10584 0.301073
59.7825 3.181 0.231375
75.3605 4.10472 0.27777
68.6498 3.6717 0.271922
70.5395 4.21681 0.341925
53.2168 3.08699 0.230298
53.7521 2.98793 0.244169
61.9984 4.29752 0.354514
66.5722 3.95324 0.303792
52.9409 2.80957 0.225763
69.8794 4.01414 0.342262
61.8502 4.05842 0.344517
72.5155 5.09003 0.44376
56.7891 3.70737 0.317154
52.4142 3.89914 0.325942
69.6382 4.60047 0.409051
60.9711 3.70828 0.351801
50.4848 3.51612 0.349496
38.7925 2.55526 0.245693
50.8455 3.21003 0.28944
52.3407 4.21143 0.415778
49.9901 3.25364 0.316873
44.893 3.27395 0.309281
34.0538 2.72345 0.276258
44.0134 3.58186 0.365432
46.97 3.58538 0.361265
42.5212 3.39894 0.364509
50.2961 4.2213 0.459814
45.7802 3.482 0.361724
53.4098 4.49875 0.494484
49.5514 4.08632 0.435713
49.4004 4.09907 0.480146
39.8195 3.55088 0.420797
43.2428 3.75886 0.441
40.2304 3.93293 0.457467
47.9363 3.61824 0.440739
45.0003 4.36433 0.497931
44.2382 4.16818 0.507727
41.6817 3.51245 0.424073
46.1773 3.64164 0.44142
47.7546 4.80356 0.606463
39.7319 3.23755 0.405102
41.8086 4.1553 0.553602
37.8208 3.40322 0.409058
45.0004 4.23124 0.538812
35.855 3.61814 0.500035
40.3262 4.67751 0.592603
40.0719 4.07825 0.539055
30.2023 3.18143 0.44083
34.4857 3.76445 0.52159
30.5704 3.52325 0.4764
31.7106 3.04808 0.421724
29.8871 3.15086 0.459037
25.5245 2.85553 0.396753
34.8228 3.95698 0.565277
32.2299 3.44099 0.524881
34.2738 3.99238 0.594734
29.867 3.79049 0.569648
33.5869 4.06799 0.620933
35.6579 3.59497 0.565642
33.5458 3.2906 0.493489
30.238 3.53068 0.569165
21.6518 2.41576 0.397345
26.0626 3.3429 0.532346
31.677 3.7273 0.632917
25.3146 3.11119 0.484372
25.8445 3.44927 0.587301
29.5204 4.09008 0.685125
30.7856 3.5065 0.588725
20.1356 2.67518 0.456064
30.6642 3.82991 0.657331
33.8866 4.12104 0.752808
27.8841 3.3145 0.583604
26.7597 4.59141 0.833835
21.8121 2.75254 0.480331
22.3704 2.59517 0.492293
22.2753 3.1044 0.576534
30.1152 3.68984 0.693507
18.375 2.27793 0.456146
27.9665 3.37145 0.64052
28.3573 3.68426 0.701258
24.3366 3.79534 0.757735
23.423 3.5648 0.699783
21.4971 3.68813 0.73199
29.1756 4.27967 0.849885
22.9254 3.23696 0.681574
20.9384 2.60811 0.496549
23.1883 3.10793 0.6687
28.3297 4.99719 1.08863
31.1065 4.01945 0.780196
23.2515 3.35179 0.769131
22.7243 3.23196 0.693011
24.4513 3.19264 0.666535
25.8768 3.87607 0.845284
19.7826 3.13384 0.684105
22.4682 4.1813 0.957448
24.3754 4.09513 0.931358
15.7539 3.18703 0.689046
21.8208 3.7781 0.860965
17.4348 2.98983 0.694303
24.2907 4.31211 0.98485
17.0283 3.38575 0.8226
21.8317 3.53653 0.798659
21.7594 4.25859 1.04191
21.6977 3.91849 0.907297
25.0509 4.60349 1.10148
18.0664 3.05395 0.733862
17.4085 4.33443 1.07937
16.0015 3.17694 0.79407
22.5955 3.96695 0.963337
24.9497 4.43515 1.11467
21.4417 3.95141 1.00192
16.4736 3.23258 0.830027
17.943 3.7294 0.972773
15.3542 2.85697 0.769543
18.3963 3.55502 0.894702
18.218 3.11187 0.833542
22.3688 3.54107 0.905317
21.5084 3.83056 1.02786
17.5323 3.73436 1.05931
22.1943 4.61893 1.18162
13.8299 2.86878 0.816269
17.949 4.25425 1.17906
17.8404 4.02432 1.12542
15.3646 2.85707 0.795784
17.6152 3.65307 1.07253
19.5892 4.35764 1.24974
17.8006 3.56036 1.00387
18.8878 3.5481 1.04819
20.3513 3.88132 1.10511
17.6195 3.73643 1.17861
20.1026 4.52559 1.34164
17.4633 4.11341 1.26866
21.6148 4.781 1.37452
14.8972 3.08151 0.933992
18.0479 4.0422 1.21851
19.5975 3.80308 1.14014
11.6304 2.58368 0.823439
18.2701 3.85402 1.22854
16.7618 4.65848 1.4288
17.8889 3.96528 1.21657
17.9016 4.21668 1.36156
13.6676 3.87172 1.28904
12.5672 2.81432 0.916057
14.5839 3.54993 1.20242
13.666 3.04937 0.932716
12.7752 3.73407 1.29314
14.0966 3.18655 1.06118
12.5022 3.77448 1.28611
13.0082 3.66394 1.24238
15.6897 4.69916 1.65481
14.1647 3.54171 1.27238
13.6936 2.85217 0.951669
14.5472 3.92277 1.32619
14.783 4.17301 1.53855
12.209 3.49676 1.15412
13.0186 3.31379 1.17744
16.8987 4.94288 1.74568
13.2341 3.3217 1.20403
13.7325 4.5748 1.70035
13.4301 3.58335 1.28463
12.6915 3.48199 1.31009
9.62862 3.47073 1.44818
15.5802 3.85606 1.39372
15.3145 4.05793 1.60415
14.2054 3.82576 1.45724
13.3183 3.81416 1.41394
14.5206 3.83265 1.43469
11.7301 2.96072 1.16515
13.8047 4.33469 1.66503
12.367 4.74096 1.86928
15.5128 4.20821 1.58158
16.1322 4.32259 1.74128
13.9265 4.56767 1.7207
11.0339 3.25295 1.38386
11.1432 3.81521 1.55035
13.8835 4.69735 2.10681
15.533 4.07621 1.65934
14.3635 4.20385 1.62485
15.271 3.98708 1.50938
10.3545 3.35089 1.40284
12.5657 3.64192 1.58798
10.8914 3.04239 1.31067
12.893 4.34274 1.93452
13.1198 3.62411 1.51015
10.8229 3.58063 1.47013
8.76564 2.45301 1.03268
11.5007 3.73201 1.61214
10.3402 3.46988 1.62494
12.1475 4.11196 1.80034
13.2868 4.27752 1.77892
14.773 4.94463 2.25074
8.7662 3.06443 1.49472
10.6713 2.90386 1.34962
13.0092 3.79758 1.6667
10.1003 3.10437 1.35372
9.78236 3.17233 1.42699
12.2211 4.34086 2.10147
11.0528 3.77234 1.93921
11.8047 4.55395 2.08201
10.517 3.94605 1.89967
10.1487 3.41131 1.74377
12.3263 4.06325 1.96468
10.6922 3.5332 1.56029
10.0249 3.61658 1.73223
12.1796 3.79467 1.83754
10.5605 3.30492 1.71655
10.1967 3.57265 1.74198
9.13793 3.87348 1.97315
13.2042 5.34244 2.7345
9.87477 4.66222 2.51917
10.029 4.11358 1.87098
8.90803 3.81538 2.09427
12.3045 4.41571 2.22651
14.649 5.54577 2.71198
9.02742 3.58277 1.9629
9.81748 3.22997 1.70737
10.6821 4.01563 1.98073
7.41778 3.24171 1.81507
12.1311 5.24211 2.82827
13.2916 4.97813 2.52626
8.27689 3.55153 1.91791
11.6069 4.22246 2.16603
11.1908 5.09497 2.72979
8.03106 3.19437 1.73434
8.6558 3.06265 1.85617
11.047 3.89253 2.0835
7.72646 2.85976 1.67438
9.19366 3.53208 1.86548
8.10081 3.55295 2.12756
10.5491 3.81106 2.084
9.3648 4.03199 2.29862
9.17762 3.72185 2.06638
11.3273 5.4275 3.11965
10.3837 3.66024 2.03406
7.38612 3.20996 1.7486
7.71482 3.86576 2.23941
8.07477 3.75808 2.24018
8.21046 3.73045 2.03821
6.08343 3.16179 2.1274
11.0303 4.28056 2.57428
8.49906 3.61733 2.09075
8.88885 4.08742 2.55398
8.44708 3.29271 1.92267
8.42097 3.30455 2.11254
7.48057 2.36686 1.295
10.3577 4.05559 2.27077
8.87047 3.71153 2.13273
8.9869 3.74476 2.47221
7.62149 3.47708 2.25735
9.06666 3.84366 2.36785
9.68993 4.65343 2.74944
9.78683 4.78725 3.40345
7.36702 3.52119 2.13495
6.64883 3.3121 2.03375
7.93602 4.10731 2.51978
8.1624 4.14672 2.6484
9.10736 4.37819 2.79261
9.75788 4.68935 3.04052
8.40035 3.97374 2.50207
8.34911 4.67358 2.97516
5.66287 2.87051 2.12007
6.58327 3.39165 2.1187
7.62731 4.33327 2.84039
8.19876 4.72583 3.34516
7.04421 3.48801 2.1638
5.57817 3.02925 2.32665
9.60862 5.08344 3.20143
6.962 2.81872 1.89385
8.4644 4.37632 3.25285
6.19697 2.39526 1.55864
9.26572 4.92014 3.35869
7.75644 4.2448 2.88149
6.11781 3.32634 2.35187
6.46256 3.65362 2.63457
8.54872 4.48324 3.21081
7.12686 3.49835 2.27064
7.42684 4.12545 3.26243
9.33792 4.66808 3.13543
6.4646 3.65695 2.75731
6.02434 3.83914 2.9377
6.04279 3.39027 2.51894
6.74788 3.79892 2.70552
6.78819 3.12433 2.41986
6.56249 4.01546 2.9483
6.67414 4.02907 2.82138
5.99557 3.57952 2.76549
5.84108 3.13738 2.61788
8.04726 3.91843 2.70141
6.49159 3.68056 2.60154
6.43308 3.54039 2.44477
5.73819 2.9533 2.24226
7.36687 4.07666 3.14276
6.1482 3.68012 2.92966
5.87025 3.14915 2.35108
6.22542 3.72671 3.02237
7.81501 4.03291 2.84574
5.66124 3.4978 3.0163
7.83531 4.55729 3.49293
6.38098 3.35865 2.54616
6.70906 4.54776 3.72004
6.17087 3.43429 2.80579
5.61211 3.41117 3.02936
7.4306 4.89177 3.68077
4.89205 3.1317 2.54625
7.33619 4.92231 3.92337
6.41747 4.38261 3.42598
8.52653 4.9246 3.87687
5.79384 3.55212 2.92487
7.15901 3.87419 3.11458
5.39339 2.93255 2.64256
6.15243 4.30022 3.7426
5.85493 3.62513 2.88266
6.16889 3.61185 3.1215
7.46002 5.0845 4.09203
5.41483 3.60759 3.35817
6.00509 3.81107 3.1301
5.10033 3.52495 3.49886
6.31666 3.7325 2.77093
6.07413 3.47926 2.81343
6.3132 3.66206 3.09078
5.37323 3.63513 3.43487
6.52343 4.99341 4.52978
7.2342 4.46648 3.72211
7.02158 4.18694 3.77743
6.77764 4.30724 3.43276
4.48501 3.45369 3.05804
5.95657 4.05573 3.68092
5.51371 3.91127 3.54642
4.92043 4.09366 3.45842
6.25108 4.64515 4.04952
4.88822 3.22052 3.05659
6.19736 3.71526 3.23256
5.65767 4.23874 4.14374
6.01701 3.98636 4.0892
6.607 4.20998 3.32521
5.78705 4.11881 3.78051
6.43001 4.02522 3.71513
6.65848 5.22822 4.6576
6.49209 4.26933 3.85448
7.60009 5.46068 4.78768
4.98415 3.75519 4.0273
7.00063 4.60162 3.75274
6.88344 4.9315 4.27886
5.53118 4.42362 4.5925
4.07828 3.34491 3.65623
7.59955 5.67039 5.48905
6.9746 5.17817 4.86838
4.26915 2.97477 3.02933
7.15611 5.03538 4.62867
5.87158 4.37633 4.06358
5.34219 3.78992 3.91898
5.51287 3.31729 3.15634
5.94728 4.21816 3.70195
3.63658 2.98402 3.26573
4.74749 3.43165 3.58607
4.36479 3.67495 4.28118
6.27853 4.11432 3.48558
5.39221 4.34312 4.43033
5.15195 3.90637 3.97077
4.94729 3.64544 4.04148
7.52523 4.91698 4.80072
6.51343 4.24657 4.07267
6.33685 5.0589 4.99121
4.59719 3.13955 3.67032
4.51449 3.54197 3.84921
5.80127 4.90155 4.83137
4.2873 3.52133 3.77081
4.86196 3.62539 3.5518
6.20516 4.63135 4.63975
5.62955 4.00414 4.11734
5.56317 3.80301 4.17423
4.99976 4.0527 4.36304
5.44262 4.17784 4.51308
5.34582 5.06173 5.08665
4.17822 2.83697 3.08503
6.65222 5.12983 5.68333
4.71041 4.35009 4.91658
5.4902 4.3653 4.60419
4.26677 3.17555 3.16021
4.17411 3.88055 4.04258
4.84426 5.43768 6.34865
5.74589 5.06878 5.21234
4.8127 3.91189 4.82234
4.59824 3.47597 4.24892
5.66617 4.4356 3.93972
3.53424 3.36961 3.91833
4.17889 3.17704 3.81905
4.72408 4.38543 5.24989
4.69778 4.1858 4.84024
4.91587 4.82885 5.65897
5.38293 4.07164 4.69285
4.43426 3.16609 3.71141
4.42142 3.60682 4.28777
6.09733 5.68745 6.85358
6.68765 4.90656 4.90535
4.08727 3.18562 3.95064
4.12706 3.95598 4.89319
4.83095 4.75768 5.26069
3.90612 4.16442 5.40533
5.85845 4.75219 5.07373
5.55561 5.04077 5.83201
4.29557 3.40778 4.37263
4.63238 4.21576 4.91278
4.31736 4.20371 5.07922
4.58875 3.50974 3.70618
3.00247 2.71759 3.83554
5.35585 5.01698 5.80021
4.95629 3.447 3.90376
5.04003 4.8967 5.97949
4.22496 3.37948 3.69954
3.72478 3.43446 4.35092
4.72791 3.97351 4.59927
4.4755 3.98375 5.07199
4.69073 4.24824 5.40132
4.66914 4.12894 5.15086
4.44089 4.43117 5.49454
4.84334 4.04111 5.27426
5.18223 4.49239 5.11416
5.38778 4.72474 5.59294
3.9076 3.06519 3.53832
4.25535 3.6422 4.70053
4.16676 3.9081 5.14191
4.82782 4.48569 5.26009
4.47617 3.95191 4.80784
3.66945 3.78673 4.55102
5.66974 6.23563 7.80636
3.76121 3.81798 5.49551
4.99346 5.13454 5.8921
5.17248 5.15391 6.52204
3.80746 4.10378 5.68831
4.31446 4.02688 5.22013
4.5917 4.05039 5.1181
4.52134 4.67361 5.62989
3.18606 2.4486 3.55534
4.99001 4.57361 5.5205
3.96901 4.41534 5.35247
3.47674 3.34651 4.92419
4.58746 4.01838 5.1867
3.61045 2.91077 3.67802
3.88494 4.15581 5.60362
4.07092 3.96606 5.0147
3.3814 3.45179 5.26097
4.80749 4.82193 6.03905
4.49455 4.38486 5.7266
4.32324 4.12141 6.09617
5.41089 4.98815 5.77296
4.14714 4.64839 6.65948
3.89903 4.28346 5.21115
3.5962 3.89257 5.79859
4.34713 5.25179 7.38114
4.34573 3.86559 5.05626
4.68963 5.09682 7.41641
5.46465 5.77957 7.93029
4.44442 4.80419 6.57242
5.28368 4.14123 4.81712
3.21354 3.87407 5.99107
3.56723 3.69469 5.747
4.17899 4.60353 5.93019
4.03252 3.8694 5.44838
4.41986 5.06237 6.65915
3.68314 3.60976 5.68993
5.01706 4.84724 6.47391
3.94042 3.8276 5.69029
3.95709 3.65077 5.25843
3.84308 3.82076 5.18723
2.99322 3.54408 4.89804
2.97364 3.30104 4.77974
4.32112 4.68806 5.974
4.13349 4.51474 6.78095
3.60996 3.76676 6.28105
3.83576 4.37564 5.912
3.85959 4.41982 6.83879
3.9555 4.7558 7.00257
3.81319 3.96746 6.44158
4.57129 4.66424 6.29205
3.56569 4.22081 6.37585
3.04784 3.40244 4.81457
3.03423 3.67121 5.59829
4.17872 4.83656 6.34183
2.00771 2.57864 4.68413
3.48905 3.92417 6.1524
4.88828 5.15571 7.3843
4.59475 5.37017 7.8943
3.94464 5.28991 7.45636
2.92204 3.59462 5.24506
3.30998 4.36667 8.03064
4.35265 4.43711 6.62986
3.60462 3.13473 3.85038
3.49604 3.69922 5.94264
2.81357 3.4276 5.49149
3.01726 4.08764 7.23918
4.21679 4.58875 5.98535
3.02279 3.70407 6.04186
3.18959 3.73779 5.93578
3.16488 3.45938 5.37837
3.41494 4.58643 7.38289
2.83888 3.0103 4.70973
4.0024 4.70219 6.78702
3.01113 3.17894 4.55607
2.60278 3.2075 6.01245
4.35499 3.85485 5.46714
4.12318 4.23654 6.74875
3.47629 4.18129 6.78117
4.22744 5.27014 8.23046
3.34695 3.60461 6.11702
3.3735 3.98287 6.05766
3.79755 4.1116 6.09915
3.18329 3.66027 6.85519
3.56749 4.96186 8.0034
3.04126 4.71686 7.91146
3.70527 4.41231 8.42988
4.46563 4.68431 6.75184
3.2046 3.91064 6.22713
3.69131 4.9021 8.30303
3.66297 4.53609 7.5491
4.13387 4.90787 6.73551
2.88629 4.20138 6.56904
3.12552 5.07532 9.55788
4.231 4.85474 8.41242
3.62221 4.57129 7.67421
4.28443 5.54491 8.82491
3.3168 3.82361 7.06345
3.56268 4.67758 8.17955
4.43297 6.36255 10.4486
3.81538 4.58617 7.92569
2.95386 4.00424 7.35113
2.79022 3.92886 7.61738
3.81129 5.25027 7.38175
3.4986 5.02572 8.17112
2.97267 3.93104 7.30887
3.03982 4.53798 8.69582
4.3109 5.03792 8.28561
3.70998 3.88308 5.90367
2.90356 4.56791 9.02671
3.58263 3.88938 6.51375
3.31707 4.40468 7.56637
3.50606 3.56392 6.15129
3.91884 4.89942 8.27469
3.0834 4.22091 6.79377
4.02935 6.11955 9.77946
2.48498 4.15957 7.88655
3.18222 3.86155 7.0111
3.34058 4.34561 7.78358
3.50426 4.36515 7.69559
3.82702 5.16593 8.58576
3.43289 4.18108 7.46304
2.97382 4.11634 7.75435
3.67256 5.30974 10.1298
3.64706 4.35113 6.59685
3.04063 4.11094 8.12111
3.09455 4.44138 7.40782
2.82178 3.97021 7.72355
2.72044 4.00082 7.36494
2.5909 3.57654 7.07368
3.70621 5.08142 8.35779
2.98118 4.24468 8.26132
3.09461 3.89991 5.41452
1.99227 3.64568 7.5982
2.99063 4.8583 8.96386
2.90226 3.73586 6.50821
2.89373 4.67913 10.0084
3.53997 3.78594 6.61882
3.27074 5.83506 10.8992
3.24111 4.37997 7.95728
2.57019 3.84366 7.91624
3.05267 3.46245 7.61362
3.80464 4.82897 8.78942
3.7349 4.70281 8.20916
2.75261 3.51561 6.58247
2.91033 4.76189 9.01383
3.46277 4.46638 6.98425
2.77198 4.50873 9.71632
3.24214 4.75547 8.11509
2.38189 3.88368 8.51144
3.31739 3.73286 6.66562
2.2695 3.23229 6.89877
2.87957 4.48592 8.67224
3.86305 5.99996 10.0889
2.76766 4.18659 9.38691
2.83831 3.48261 5.89664
3.34805 5.04178 9.14471
2.73475 4.98733 10.8273
3.70554 4.61698 8.21339
3.45853 5.20167 9.08585
2.55222 4.44629 9.75386
3.36004 4.09915 7.22029
3.29628 5.06299 10.12
3.5086 4.38091 7.85443
3.07097 4.81028 10.1609
3.23481 4.91264 8.46706
2.25385 4.49092 10.3297
3.73732 5.55126 9.11566
2.60898 4.11693 8.88144
2.59892 3.46945 6.98621
2.87175 4.41474 7.67384
2.36761 3.73043 8.64707
2.91654 4.55566 8.0982
2.35987 3.83584 9.06802
2.91517 4.08665 9.16112
3.3116 4.69146 9.34926
3.72952 5.7637 11.3919
2.92194 4.31416 8.59005
2.83308 3.69033 8.14743
3.78303 5.39786 8.19159
2.5192 4.15835 8.85513
2.84612 3.72196 7.26241
3.00616 4.45954 9.6267
2.51133 3.97226 8.60809
2.28173 3.52828 7.42876
2.89485 4.25399 8.18111
2.49572 3.74797 6.98958
2.5202 4.65373 9.79697
2.97705 4.38228 8.79489
2.34209 3.358 7.66832
2.92152 5.10083 10.101
2.67944 4.05359 8.87119
3.65577 5.71545 11.3314
3.48765 6.0367 12.442
3.02667 4.01561 8.99441
3.228 5.20275 11.0438
3.25177 5.03711 8.70494
2.61651 4.33454 8.91373
2.74391 3.96412 8.75679
2.88696 5.28169 12.1153
3.38905 3.84856 7.39462
2.19808 3.72998 7.40911
2.20353 3.61487 8.4319
2.51784 3.8351 8.07429
2.37618 4.49649 10.0776
2.98556 5.14232 11.5475
2.68381 4.507 10.1181
3.48151 5.5664 11.7646
2.9156 4.69048 10.7476
2.73656 4.55743 9.73627
2.88644 5.09605 11.1174
3.16508 5.83829 11.0029
3.11056 6.25681 13.3616
2.44901 3.73542 7.14718
2.11522 3.62076 8.25716
2.46868 4.86865 11.3437
2.89706 4.69012 10.5212
2.96868 4.08822 8.1865
2.55517 4.4086 9.89954
2.55555 4.82444 11.9192
2.45723 4.1037 9.72935
2.7518 4.7864 11.1547
2.77954 5.56261 13.1186
2.87228 4.60533 9.12966
2.29897 4.17691 9.12965
2.56825 3.41309 8.22103
2.90044 4.0126 7.22607
2.48223 4.81456 11.0215
2.84181 4.46912 8.91262
2.21136 3.49715 9.4236
3.21906 4.97196 9.53426
3.12869 4.89398 12.0442
3.269 5.64303 11.7826
2.16512 3.94345 10.0496
2.31203 3.55971 9.42772
2.37669 3.8703 9.33539
3.06027 5.46338 12.0799
3.01526 5.23111 10.5699
3.05571 5.2574 11.938
2.43414 4.29646 10.1661
2.40558 5.08676 11.2313
2.20064 3.46994 9.29799
2.72832 3.93798 9.12028
2.33681 3.18509 6.61912
1.94522 3.53481 8.19393
2.19191 4.30075 9.22917
2.32554 4.09891 8.17887
2.32868 4.35541 10.1013
2.55884 5.01222 12.3016
2.70004 4.4993 11.5399
2.31987 3.40177 8.91882
2.5733 5.61652 12.5713
2.31399 4.9465 11.5593
2.29599 3.90485 9.39813
2.51582 5.1909 12.2199
3.11077 4.16582 9.32302
2.22067 4.59945 12.0403
3.02972 6.06669 11.1887
1.96997 4.03565 11.0529
2.13371 2.99757 8.14764
2.33965 4.73016 12.0681
3.16045 4.86541 9.72292
2.21064 3.58627 10.6037
2.40178 3.97309 10.0491
2.75119 4.69212 8.94302
2.10401 3.76201 11.0911
2.68877 4.66853 10.4761
2.91675 6.10344 16.1761
3.63764 6.39644 13.6455
2.67508 5.11337 11.3323
2.53915 4.93749 12.3709
2.54547 4.48314 10.2644
1.9906 5.55246 14.6984
3.19315 5.08518 12.2212
2.69948 4.63035 11.4699
2.68208 4.97747 11.3088
2.33458 3.96592 10.5437
2.4244 4.30609 12.5258
3.27523 5.89977 12.4537
2.65586 5.42583 13.1578
2.55832 4.87889 12.7759
3.22 5.89579 11.787
2.06441 4.30927 11.224
2.29913 4.57629 11.5757
2.22646 4.27633 10.0535
2.04684 4.59906 11.9833
2.06774 4.09663 10.7845
2.33569 4.18174 10.6185
2.70559 6.32503 16.7725
2.72603 4.67373 11.8511
2.69481 4.78562 9.60602
1.83574 3.89916 10.1005
2.41861 3.73052 9.54319
1.96026 3.16109 7.83004
2.09627 4.22233 10.8517
2.95349 5.5318 13.582
2.73598 5.68607 12.52
2.25569 4.01768 9.49574
2.47874 4.74915 11.4413
2.11555 4.67406 12.4589
2.35568 4.50951 11.9434
2.46252 5.53431 13.929
2.65147 5.21533 12.1329
2.4361 4.58841 12.5813
2.54101 5.09676 13.9623
3.1146 5.76721 11.6874
2.19248 5.22507 14.072
2.01037 4.20222 13.5884
2.72242 3.72539 7.97807
2.2868 3.99282 8.90329
2.49604 5.97405 16.4176
2.41514 4.08424 9.87257
2.51138 6.44448 15.7217
2.40055 4.4763 10.2981
1.93254 4.71235 15.01
2.64752 5.1281 12.9914
2.23819 5.16046 12.8069
2.89078 5.35993 12.923
2.39136 4.99078 12.4579
2.01968 4.69932 14.7479
2.43479 4.72565 14.6799
2.7031 4.97705 12.004
2.06477 4.7987 12.3427
2.21517 4.67252 11.7427
2.53132 4.5436 10.0225
2.11351 5.1655 12.9848
1.95196 4.75621 13.8934
2.19638 4.25284 11.8374
2.25356 5.42858 15.5088
2.49275 5.42459 14.9148
2.68701 6.181 15.7956
2.5743 4.76745 13.854
2.42436 5.42765 13.2326
2.07425 3.52453 10.376
2.3286 5.7665 16.875
3.08369 5.86494 15.5082
2.60661 5.19519 13.2822
2.49112 4.93045 13.0601
2.0154 4.74813 12.7793
2.09178 4.74604 12.188
2.28796 4.60819 13.3301
2.69949 4.66643 10.7045
2.43734 5.00659 12.9021
2.12269 5.27712 15.4926
2.47535 5.31062 12.3146
2.08185 5.82919 16.0587
2.42985 4.66168 13.1913
2.54839 5.64744 14.7167
1.95466 4.28241 11.5095
1.90124 5.19634 13.3941
1.85102 3.50121 10.3699
2.13871 5.29416 16.5839
2.3192 4.9077 13.2006
1.84804 4.16006 12.8208
2.49742 4.65271 11.0714
1.80135 4.75805 12.5619
2.01888 4.15986 14.3638
1.97738 3.87211 11.4678
1.71785 3.98202 10.6769
2.08725 4.24842 11.8327
1.97832 4.42362 11.7992
2.05442 4.339 11.9004
1.8442 4.4704 15.7269
2.40787 4.78375 12.3125
2.05925 4.51857 13.4425
2.3564 4.90895 14.4975
1.92578 4.39661 15.0034
3.22728 6.54755 15.7909
2.60912 5.67866 15.1172
1.89365 3.97569 11.5517
1.72278 4.63138 13.5841
2.09494 4.92712 14.0432
2.00669 4.14002 10.8275
1.80504 4.34762 13.7043
2.48632 5.49147 15.2233
2.35968 4.84316 14.8745
2.36841 5.3739 15.3586
2.25461 6.28945 15.468
2.11396 4.6352 13.8979
1.92867 4.93562 13.7733
1.80877 4.67468 17.6322
2.89785 5.06377 12.4065
1.96412 3.6768 10.0697
2.10179 5.039 16.4502
1.85029 4.11138 12.0017
2.173 5.10156 12.569
2.11976 3.62137 10.6373
1.77953 4.05572 12.8642
1.79905 4.40713 11.0061
1.57613 3.55898 14.4659
2.40033 5.44763 13.5264
2.15612 5.49314 18.945
2.77917 4.94008 11.7446
1.97338 4.50889 12.4658
2.11326 5.69052 16.0188
2.09251 5.39661 14.8723
2.05167 4.74309 14.659
2.21287 5.13712 14.2378
1.88406 4.26131 15.6314
2.33338 5.97266 18.2101
2.16123 4.77158 12.8956
2.13656 4.79476 16.2595
2.63798 6.37654 16.7304
1.95155 4.91121 17.3996
2.71231 6.06272 16.6017
2.5803 6.08379 18.0707
2.58207 4.76701 12.788
1.84299 4.30551 16.5754
2.76837 5.85639 15.0218
2.04215 3.76843 9.69154
1.87471 4.28586 13.6001
1.88685 5.27441 18.6608
2.69734 4.67098 10.7322
1.92474 5.22375 14.4956
1.53442 3.83645 13.1026
2.30765 5.90248 19.9105
2.6854 4.93376 13.9058
2.22132 4.28676 13.4618
1.79624 3.67957 9.11232
1.55515 4.49904 15.5192
2.04255 4.24562 13.6018
2.07754 5.50674 14.9356
1.90157 4.31931 14.9942
1.89252 4.41788 16.7922
2.29123 6.31976 16.6284
2.15024 5.11831 16.9431
2.51575 6.44373 15.8477
1.73428 4.47686 14.4521
2.18905 5.26445 15.7791
2.13522 4.45411 16.8822
2.21571 6.04221 16.0191
1.59026 4.14446 16.7979
2.75137 7.35284 17.0793
1.98398 5.91669 19.4572
2.26239 5.31981 16.7775
2.4465 5.34367 14.0427
2.147 4.9706 14.0815
2.28308 7.1088 24.5498
2.48319 4.36719 15.4292
1.92528 4.89006 14.6826
1.71319 4.41835 13.37
1.93239 4.17243 13.9273
2.07134 3.87626 13.7247
2.1252 4.92465 13.1396
1.80045 5.69163 16.8625
1.87716 4.2343 17.6561
2.58249 4.67122 11.6841
1.74543 5.0088 17.7064
2.35613 4.94842 10.7168
1.33298 4.18726 18.1076
2.61229 6.78362 19.2301
2.11973 5.37038 13.9318
1.49911 4.39935 16.8964
2.15158 4.49564 11.4634
1.49192 3.99922 12.4105
1.5484 4.36774 13.6473
1.59361 5.33933 19.8219
2.4184 5.40698 18.7524
2.52941 6.19587 18.4203
2.23893 5.9042 19.0964
2.45812 5.71212 18.6004
2.30126 5.26452 17.3812
2.53491 5.59003 15.6678
1.95428 5.99198 15.6247
1.68993 5.54648 17.9679
2.06905 4.51564 16.9194
2.14499 4.69835 13.2292
1.96521 6.55793 21.1259
2.41059 5.4196 18.0374
2.22153 5.73715 16.5326
1.75889 4.47529 17.5875
2.61649 5.96107 14.7416
1.46934 3.8239 13.9411
2.00511 3.28646 9.28679
1.53461 5.79615 19.734
1.93847 3.22517 13.6007
2.1013 5.71396 16.0588
2.04678 4.83667 13.1761
1.81931 4.22204 15.8544
2.14951 4.92705 17.4906
2.07196 5.79114 19.1558
2.35122 6.78798 23.0305
2.30093 4.63765 15.6419
2.1503 4.83916 14.9439
1.90266 4.8199 15.3794
1.73436 6.27813 17.7429
1.7339 3.76076 15.5704
1.89178 4.39161 13.0528
1.87921 5.15738 19.3832
2.18023 5.45637 16.4059
2.06993 5.7104 15.3311
1.55768 5.21225 17.2325
1.92607 3.96487 13.0037
1.65057 5.02887 16.8467
1.90777 5.84059 19.9389
1.94543 3.87804 13.5721
1.60387 4.24108 15.165
2.21913 5.00917 15.7681
2.01327 5.07242 19.8696
2.2459 5.64207 17.1738
1.92101 4.88718 12.554
1.40963 4.2293 17.0466
2.04479 6.63173 20.2473
2.08397 4.36333 11.6337
1.38833 5.19545 14.9335
1.65118 4.55564 14.4162
1.50157 5.25927 18.817
1.88364 4.57033 16.6775
1.8501 5.25873 18.7696
2.55838 6.43302 19.7466
2.2621 5.34643 17.2347
1.90393 5.74737 16.9929
1.67701 4.75755 15.0062
1.54661 5.0993 18.9741
1.97238 4.95831 18.5825
2.32429 6.11668 18.9747
2.19331 6.16282 23.0505
2.66782 5.78243 16.537
1.79216 5.9053 17.2679
1.67116 5.10499 19.3422
1.86987 5.71415 18.2625
1.79954 3.98088 15.4729
2.13309 5.0649 18.5529
2.05597 3.90282 15.6115
2.20307 5.41755 15.6882
1.75666 5.11533 17.0003
1.92443 5.6496 15.5736
1.60536 5.4667 20.0615
2.22645 4.71384 15.319
1.97872 5.21969 16.6481
1.997 5.69652 20.8019
1.96236 5.29678 18.8215
1.96761 4.27864 13.6799
1.84247 4.6375 15.7466
1.83898 5.89774 18.4038
1.45992 4.30345 23.5411
2.56379 5.75029 15.0929
1.66369 5.04326 18.8191
2.2429 6.26027 17.9626
1.78217 5.20769 16.8613
1.72655 4.10744 13.5577
1.51851 4.3385 15.7224
1.65568 3.88206 14.6218
1.81015 5.53873 16.6543
1.75668 5.5731 20.3484
1.96587 5.02172 14.8177
1.48736 4.27434 16.2631
2.0145 5.39178 20.0694
1.95296 5.05828 19.4411
2.05777 4.43593 16.5956
2.37284 5.76662 15.7843
1.54685 4.73676 19.5038
2.03029 5.15522 18.0491
1.95699 4.87911 16.7911
2.00366 4.90839 11.802
1.37159 5.11821 20.2644
1.94691 3.82405 17.5415
2.08034 6.22707 16.4154
1.67022 4.76228 18.8143
1.95153 4.89733 18.2608
1.78351 5.67206 15.717
1.65858 5.69293 19.2641
1.74682 4.96288 21.4828
2.25152 6.02532 19.209
2.01795 5.2488 18.1635
1.7929 4.49156 17.7241
2.01396 5.46273 16.7891
1.82591 4.19859 15.1474
1.49392 4.30207 15.9971
1.74352 6.32662 23.4024
2.02654 3.66357 14.3248
2.08028 6.76672 19.8118
1.81083 5.15612 23.4852
2.29594 6.5442 22.0857
1.91026 4.05319 17.3259
2.08131 5.24717 16.3731
1.86255 5.96546 21.5347
2.04372 6.45664 18.9343
1.7217 5.07599 21.0813
2.36957 7.08282 16.0745
1.43207 3.75044 16.5542
1.84471 5.73347 18.125
1.51422 3.54181 15.2417
1.75314 3.8936 17.0771
1.90562 5.91984 17.2858
1.73748 5.19596 20.3055
1.91162 5.26838 20.4173
1.67777 4.84346 16.1517
1.76948 4.95624 16.592
1.60802 3.84883 14.7997
1.7782 5.31117 19.4611
1.95095 5.21265 19.481
1.73239 6.93292 21.3249
1.91438 5.96442 19.7322
2.06177 5.01156 17.0293
1.52867 5.4136 25.8247
2.35535 5.50907 19.8798
2.32915 5.85471 23.8378
2.52457 6.0469 14.4237
1.37021 4.59176 13.419
1.48753 5.89045 24.5758
2.18606 4.63523 13.9727
1.53428 5.49663 23.5489
2.03681 5.16403 22.8369
2.52089 7.79034 23.2189
1.66445 5.32064 23.2433
2.10179 4.50103 18.8978
1.91204 7.28326 24.2401
2.36648 6.68352 19.9392
1.54169 4.4809 20.7267
2.13804 4.95156 18.9269
2.12858 5.29305 20.1399
1.80729 4.1591 14.5234
1.81686 7.15816 24.3575
1.89604 4.63661 18.8922
1.99613 6.43866 23.5835
2.22772 5.2546 22.8365
2.07025 5.57025 16.1979
1.71426 5.28339 18.9111
1.73101 3.91799 19.3172
1.967 6.31346 23.9107
2.36819 5.68639 17.2207
1.68023 4.66403 17.2948
1.77114 5.28689 22.9907
2.18645 5.5544 17.4216
1.73013 5.04536 20.0529
1.71613 5.37628 23.3812
2.34493 5.48511 21.0406
2.12023 6.328 17.7832
1.55602 4.6419 17.2995
1.70279 5.08146 20.3859
1.83244 6.59638 18.681
1.46454 4.0646 20.0871
2.00187 5.80109 16.0708
1.39628 3.64074 17.1295
1.93293 5.27379 16.9746
1.90635 5.52681 24.2635
2.03859 4.97636 18.8592
1.85316 6.05228 19.2951
1.9418 4.74143 16.805
1.57886 5.17324 19.2244
1.94024 4.31827 17.3714
1.98302 6.36667 20.9913
1.70316 5.38608 20.8451
1.62024 4.86447 17.6519
1.73034 6.04855 22.0227
1.94748 5.71544 21.7755
1.94325 5.46236 16.8213
2.0293 7.0698 27.8546
2.11564 5.25378 19.2885
1.73847 5.79983 16.6237
1.39445 4.24833 16.4873
1.52669 3.88598 14.9177
1.79315 5.96428 25.8688
2.2967 6.16766 22.8797
1.90767 5.46089 18.7785
1.74002 5.60049 19.7491
1.70465 5.37246 23.9281
1.98808 5.40363 17.5108
1.79183 7.26264 21.8643
1.84195 5.23682 19.7376
1.71516 4.45689 19.6429
1.79497 5.04139 18.1797
1.70207 4.73036 17.9684
1.65944 4.19867 15.8761
1.50326 5.20264 18.3127
1.75819 4.16318 17.0504
1.61537 5.60571 22.8863
1.80663 5.62876 18.3267
1.42925 4.25966 16.8201
1.53787 4.4773 20.4617
1.78586 5.73318 18.1318
1.62544 3.91539 20.2079
1.96884 5.79542 18.8537
1.62358 5.23927 16.4766
1.46947 3.85345 18.5422
1.94082 5.46291 15.8056
1.45824 5.49835 22.0974
1.81843 5.2056 27.852
2.44176 6.46115 16.9856
1.41858 5.26694 26.4904
2.11499 5.50394 20.2948
1.63476 4.7194 18.0316
1.80708 6.44574 22.1282
1.99292 5.99086 20.3615
1.79267 6.17092 18.3238
1.15874 3.12602 17.3633
1.64979 6.00452 20.0399
1.48114 4.37663 25.4578
1.98991 5.80036 21.3116
1.84587 6.20917 16.0035
1.19925 4.24407 18.3388
1.43241 5.11825 21.8968
1.78443 5.12604 22.5135
1.97943 5.18386 17.6787
1.60896 4.93511 17.1388
1.52796 4.57418 17.2202
1.35698 5.97169 19.7033
1.66323 3.26308 17.361
1.56875 4.67668 19.1327
1.8871 5.07516 16.413
1.63708 5.60887 23.589
2.02921 5.66435 25.2499
2.11712 5.22808 15.0202
1.60116 5.60952 19.8589
1.6375 4.54988 19.1906
1.58954 6.50909 24.1655
1.8862 5.24206 20.4827
2.11753 6.39781 22.0261
1.58275 5.12909 21.2975
1.45656 4.07845 16.8363
1.76979 6.19128 19.0949
1.61229 5.04714 24.5238
2.13484 6.09935 22.1128
1.64129 5.80508 20.607
1.82033 4.78444 15.2814
1.01315 4.92613 23.6788
1.97227 5.56443 18.9411
1.81786 5.79124 25.7603
2.08702 8.92374 31.294
1.99643 5.04262 21.7703
2.15427 6.59706 29.4645
2.1699 5.87159 20.5881
1.75354 5.05156 19.2734
1.71774 6.53233 24.8509
2.02936 5.04748 16.4784
1.60218 4.36672 21.7998
1.86888 5.80228 22.7517
1.63281 5.53869 25.1831
2.05616 6.03052 16.9533
1.53786 5.68128 23.7667
1.96903 5.08438 23.0863
1.98297 6.00775 19.8335
1.62307 4.50145 13.8177
1.1171 4.5926 21.1455
1.75799 5.39594 25.5005
2.12733 6.16569 18.7824
1.58498 6.30753 19.2926
1.56209 5.98102 26.9462
2.05898 5.11627 18.4342
1.54705 4.41032 17.582
1.5058 5.38353 20.134
1.37231 5.09655 24.7002
1.80404 6.6466 25.2752
1.92675 6.51696 25.4818
1.90972 6.44088 20.2729
1.67783 4.14353 18.4826
1.56998 4.05979 16.5016
1.57834 5.43032 22.0393
1.70886 5.73743 24.1368
1.77255 6.22481 23.1586
1.89411 5.03605 20.0881
1.41138 4.21838 20.3959
1.54309 4.63401 21.1486
1.58928 5.72283 19.6504
1.55017 4.55901 20.5698
1.87459 6.16648 17.3913
1.3295 4.43963 18.5001
1.36965 4.62869 19.4508
1.60007 6.58853 21.5023
1.71186 4.79501 17.5972
1.56527 4.67159 20.6038
1.79615 5.90378 28.305
2.43405 5.01525 15.3291
1.16696 5.66412 25.1762
2.00759 6.7785 24.9922
1.98993 5.62907 17.7944
1.33278 5.96425 21.5883
1.66984 5.25848 28.5003
2.10671 5.95149 17.3003
1.45831 5.18623 17.4115
1.49564 6.14097 23.4286
1.79329 5.16288 21.6192
1.96822 6.64516 26.4479
2.0168 4.95755 21.5432
1.4877 5.52367 23.5923
1.79519 5.91326 24.2955
1.90979 5.00739 18.2699
1.42918 6.12658 25.5576
2.04744 4.98956 24.5424
1.85768 6.7139 23.9579
1.96379 4.74582 26.9617
2.14145 7.99032 21.9271
1.68842 5.62661 24.2433
1.85174 6.25365 23.8249
1.85063 5.17712 20.9372
1.89096 6.23453 19.6168
1.43503 3.84961 22.5163
1.85683 5.62234 17.354
1.49253 4.67932 27.385
2.05483 6.78391 22.3907
1.71317 6.38581 20.7785
1.58249 4.62865 16.9903
1.45828 5.38432 24.5008
1.95397 5.68873 20.1191
1.69902 3.80471 17.5688
1.55701 4.90798 21.2975
1.68085 7.80946 27.6612
1.97984 6.00411 29.2473
2.12265 7.03018 21.2297
1.50025 4.90928 19.9132
1.56312 4.63276 22.3632
1.88397 5.94186 20.2847
1.73283 5.47128 26.4652
1.90752 4.78989 16.2423
1.36278 3.90197 16.8555
1.4207 5.32131 22.753
1.93773 4.97058 20.4103
1.6275 6.04344 26.4314
1.89685 6.26555 20.4027
1.57723 4.68164 20.0448
1.86411 6.99939 22.8294
1.67195 5.05181 21.3094
1.49748 5.08052 20.957
1.64911 4.54147 24.0608
1.96662 7.51263 23.9435
1.97745 6.43896 26.5146
2.24272 6.81071 26.1124
1.87843 5.52338 17.3099
1.38689 4.02922 20.1907
1.70603 5.22527 17.1399
1.26046 5.32956 19.4042
1.44865 6.00311 24.8009
1.73199 4.68313 18.783
1.70374 4.4536 22.541
1.89518 6.35616 21.613
1.72332 5.76549 21.495
1.62372 5.74711 23.3797
1.859 3.29278 14.6317
1.19687 5.58337 22.3482
1.84826 4.91524 19.5309
1.68536 5.34938 16.2091
1.41809 5.33972 23.8085
1.81303 5.09671 29.5644
2.17505 7.30732 21.8202
1.72716 5.78202 20.5173
1.46684 5.93841 24.3314
2.02785 5.2311 17.6758
1.62287 6.38343 21.8073
1.78131 4.70881 19.5953
1.48538 4.57352 23.7801
1.83293 5.70366 24.0014
1.85986 5.48704 25.7521
1.96776 5.9689 17.894
1.31891 5.39843 18.0665
1.6649 4.25513 19.2445
1.58895 5.72243 22.9274
1.99594 5.90425 22.3927
1.64559 4.42569 18.1302
1.59073 5.04297 20.7361
1.56278 4.67953 16.2002
1.37034 4.47699 20.4891
2.01621 4.57931 20.0721
1.59654 4.86231 19.6011
1.53071 6.94465 20.1085
1.49244 5.86069 35.471
2.56093 8.02154 25.6375
1.88396 5.39546 19.066
1.38523 4.56272 18.983
1.66748 5.96574 22.6246
1.7962 5.24292 32.2873
2.45446 6.60932 22.8764
1.81196 6.65182 22.3228
1.75508 5.74742 21.143
1.68805 4.90625 16.7946
1.50913 5.14105 21.4807
1.64024 5.40188 25.0246
1.8176 5.67998 21.5082
1.67595 5.76071 20.3357
1.62944 5.17329 24.2266
1.96549 5.47766 21.6451
1.68179 4.66195 22.122
1.67627 5.08655 16.4921
1.51382 6.14623 23.889
1.94379 6.17615 29.081
2.09551 6.53491 20.3057
1.40405 6.06795 23.2307
1.7207 3.88489 16.2626
1.3953 5.8272 23.7491
1.95854 4.17595 14.8942
1.24006 4.10724 15.0213
1.16305 3.80588 22.749
1.90439 5.25957 18.1918
1.36946 5.35973 21.4845
1.62706 5.57012 20.7907
1.7029 5.61118 23.8363
1.73436 5.57484 27.2855
1.88912 6.91481 25.7949
1.99724 6.27757 22.1344
1.55736 4.95839 20.3792
1.81446 5.63963 22.4276
1.69261 5.91415 25.1866
1.90872 7.46061 38.9207
2.5397 0 0