# pn-170911/RbIIA-34-AMC2-1280-1959.psd
# Power spectrum* (dif=0,1,2) (really just |FT|^2)
# NOTE: only the first half! (symmetric)
# weeks: 1280-1959
# 363 clock-days, 99 excluded
# PSD: 1441
11209 0.147994 0.0105378
239348 2.90889 0.00472412
1.34442e+06 29.1191 0.00539003
145688 5.53001 0.00473336
103303 6.68789 0.005143
61878.1 5.88442 0.00539743
39139.6 5.68418 0.00576737
31917.1 6.09862 0.00620138
24027.1 6.1152 0.00670897
18728 5.59379 0.00687144
14177.2 5.44904 0.00736169
12296.3 5.50072 0.00729948
11866.1 6.54486 0.00921129
8550.24 5.73988 0.00897733
7324.82 5.51309 0.00930173
6822.25 5.93406 0.0111544
6076.9 5.93818 0.0127777
5137.38 5.70552 0.0130922
4415.46 5.6125 0.0138599
4394.19 5.81147 0.0154842
3795.01 5.77127 0.0157107
3089.61 5.24653 0.0151524
2942.08 5.70385 0.017888
2892.81 5.5833 0.0191767
2688.82 5.7256 0.0202746
2526.1 5.80178 0.0230014
2010.14 5.103 0.0203964
1948.62 5.31827 0.0239156
1948.22 5.74839 0.0262801
1822.02 5.80083 0.0271144
1539.23 5.1404 0.0282883
1618.57 5.98401 0.0328162
1509.3 5.90955 0.0333421
1324.29 5.63492 0.0340701
1278.43 5.90157 0.037627
1194.45 5.78742 0.0380506
1187.15 5.97799 0.0428005
1162.18 6.04161 0.0445227
1033.49 5.70082 0.0427036
1002.22 5.88376 0.0470291
1019.94 6.5669 0.0561348
882.965 5.74484 0.048891
876.479 5.9204 0.0549161
807.201 5.45075 0.0542953
781.519 5.69771 0.0567731
760.184 5.93559 0.0618973
678.699 5.53077 0.05925
690.163 5.61614 0.0634698
612.088 5.59696 0.0651098
639.702 5.98303 0.0747041
611.967 5.66187 0.073704
562.162 5.59338 0.0746149
552.785 5.66517 0.0772019
517.906 5.55097 0.0777612
541.761 6.12518 0.088819
521.252 5.80203 0.0885986
458.049 5.3791 0.0861851
487.271 6.14544 0.101526
456.964 5.84884 0.102193
424.735 6.09457 0.103847
425.099 6.02946 0.107183
417.828 6.284 0.116166
416.265 6.11487 0.117186
398.643 6.03051 0.118416
368.32 6.10623 0.125458
347.712 6.11911 0.128718
342.266 5.55438 0.117145
334.437 5.76878 0.125013
337.907 6.0956 0.139442
327.206 6.4684 0.146895
298.255 5.75256 0.139531
304.117 5.74048 0.141116
260.963 5.32777 0.136992
264.227 5.59206 0.150086
288.684 5.86785 0.156585
259.885 5.55205 0.152181
285.141 6.37601 0.179377
262.864 5.92253 0.170057
239.402 5.83135 0.173525
258.433 5.94497 0.181084
253.23 6.1512 0.193484
233.627 5.82571 0.184848
242.466 6.21788 0.201946
210.33 6.0004 0.202857
221.372 6.12914 0.209942
213.669 6.09012 0.213921
203.21 5.88514 0.207815
189.946 5.77394 0.21491
196.188 5.95559 0.222842
186.071 5.77534 0.222056
195.367 6.05109 0.233955
167.031 5.24498 0.210006
177.37 5.64257 0.23498
173.39 5.86438 0.239051
182.656 6.4522 0.274095
170.427 6.04432 0.26302
159.42 5.72293 0.253229
181.492 6.40933 0.290141
150.518 5.48037 0.253407
152.061 5.56202 0.263795
150.567 5.92461 0.286921
161.891 6.34373 0.31209
146.141 5.77848 0.290186
142.508 5.72939 0.29276
145.491 5.77981 0.303272
141.564 6.10216 0.324792
145.208 6.17652 0.335991
133.899 5.99909 0.332497
139.994 6.14017 0.340207
138.977 6.1518 0.342996
125.441 5.47229 0.31326
129.567 6.28396 0.374223
124.921 6.07626 0.362753
117.042 5.34835 0.326458
117.869 5.87495 0.370161
115 6.11952 0.382824
106.241 5.7254 0.371566
119.969 6.13725 0.398748
111.037 5.71636 0.377718
112.028 6.14562 0.41889
107.216 6.02897 0.417195
110.678 6.36184 0.448449
100.454 5.8678 0.407763
105.695 6.14615 0.444519
95.945 5.71489 0.418657
99.087 6.11888 0.456167
95.0359 5.62495 0.431435
94.9595 5.93702 0.461242
89.0012 5.70354 0.444733
96.183 6.27122 0.50508
88.4074 5.76019 0.467664
90.0477 5.73979 0.469397
83.3552 5.43523 0.45106
84.2881 6.06598 0.511653
83.3497 5.55604 0.476057
75.8394 5.28437 0.461549
82.4938 5.59543 0.489472
80.4259 6.01793 0.540612
79.6891 5.71853 0.519883
76.6713 5.57165 0.516831
84.726 6.26233 0.58789
77.4334 5.75922 0.548666
80.9822 5.99894 0.577956
70.4289 5.58575 0.537288
69.3484 5.56034 0.553568
77.9106 6.20488 0.622975
69.706 6.0777 0.625783
73.3894 5.78554 0.589576
70.605 5.88615 0.611982
69.2894 5.53986 0.587741
76.5167 6.46043 0.691737
64.1211 5.62845 0.608976
63.3157 6.13666 0.673679
68.2861 5.8537 0.649925
60.5788 5.2995 0.592053
63.2315 5.9499 0.677688
58.3829 5.3544 0.620942
64.1067 5.84034 0.666634
63.7669 6.09091 0.71535
56.8376 5.66861 0.688341
63.1411 6.25738 0.762353
58.8533 5.95227 0.727575
62.5678 6.25396 0.77765
58.8601 5.67343 0.724045
57.9406 6.02929 0.765553
59.0075 5.809 0.742427
55.8771 6.29324 0.820043
52.5779 5.6796 0.751742
57.0993 6.12118 0.816098
48.9267 5.52883 0.759156
58.8941 6.29604 0.859443
53.445 5.98183 0.83023
49.5301 5.54352 0.767356
49.8837 5.56639 0.794561
53.1394 6.22407 0.897319
53.2766 6.19765 0.884051
48.87 5.96037 0.866242
49.0162 5.96633 0.872936
48.9303 6.27161 0.930899
48.0006 5.99341 0.916105
52.4349 6.31694 0.973612
51.1685 6.09513 0.938564
47.1406 5.84622 0.927574
41.9963 5.35142 0.844653
52.2199 6.45325 1.02453
45.3235 5.93671 0.948247
46.981 5.89528 0.970526
49.235 6.51891 1.05908
48.7373 6.54021 1.1054
43.4945 5.92506 0.998941
43.0895 5.95349 1.01934
40.8139 5.60979 0.974325
45.9438 6.30207 1.0984
42.2147 5.71231 0.994809
41.5165 6.10253 1.08272
40.5046 5.9531 1.06963
40.7525 6.08321 1.1066
39.0541 5.56764 0.995381
41.9497 6.18395 1.16787
36.732 5.62655 1.05481
37.0618 5.72507 1.06614
38.0276 6.0651 1.16597
37.0903 5.52585 1.04852
37.0765 5.67848 1.09712
37.8038 6.03185 1.17707
36.9114 6.29125 1.22976
37.8168 6.07309 1.2144
34.8947 5.83858 1.17775
34.3966 5.73259 1.13351
35.8824 6.03408 1.23737
33.0699 5.84493 1.22837
33.9126 5.86979 1.22923
33.9884 6.14501 1.28413
36.3929 6.18308 1.33253
34.5784 6.0146 1.30811
32.8716 6.12013 1.33344
33.7328 5.72059 1.25356
32.2305 5.65441 1.24602
34.9285 6.37476 1.43102
35.161 6.38408 1.42729
34.0642 6.28489 1.40908
31.7773 5.96417 1.3675
32.0169 5.84728 1.33319
29.9618 5.60689 1.35101
30.2874 5.32391 1.24493
33.5409 6.57558 1.57615
30.4784 5.89456 1.42266
30.1634 5.81497 1.39697
30.1206 5.87997 1.40709
30.9051 6.25563 1.55092
32.2929 6.65464 1.65333
29.8651 6.33626 1.6106
27.4391 5.70245 1.44667
31.0444 6.19061 1.54034
29.7505 6.09449 1.57052
29.7457 6.11268 1.56616
27.8974 6.07854 1.57456
24.8807 5.18852 1.39397
28.0935 6.12089 1.61344
25.5618 5.41204 1.43985
26.9882 5.79683 1.56004
28.1614 6.42653 1.74253
24.7554 5.40251 1.49129
25.8078 5.83358 1.57493
26.266 5.92244 1.64145
25.6147 6.02149 1.68825
26.8115 6.22136 1.75212
24.6675 5.7641 1.62722
25.0256 5.95965 1.72767
24.0115 5.82621 1.67555
22.8611 5.1842 1.50903
24.3771 5.68755 1.6369
22.9217 5.47506 1.6037
22.7122 5.65616 1.73362
24.9358 6.15898 1.84931
24.5873 6.17587 1.88837
23.7085 5.80872 1.71265
21.4308 5.63682 1.76764
25.7752 6.49878 1.95573
21.8702 5.70577 1.79636
24.3128 6.10467 1.94403
24.1821 6.01638 1.88915
24.162 6.49819 1.99266
21.8621 5.82952 1.87527
22.3741 6.05303 1.95846
21.8706 6.09856 1.99466
22.8976 5.86407 1.92914
22.2806 5.81352 1.95682
22.4778 6.23865 2.03737
21.8686 6.13068 2.09731
22.5532 6.30706 2.07229
22.5722 6.27864 2.15122
21.2612 6.14259 2.08227
21.4872 6.24618 2.23029
23.7188 6.31686 2.1268
22.6166 6.61625 2.3211
21.4366 5.98106 2.12171
19.6215 5.88561 2.13739
19.2305 5.54039 2.01026
23.1223 6.28504 2.26007
19.3592 5.72708 2.08735
21.5526 6.41186 2.33756
18.2466 5.45366 2.00611
19.4519 6.16258 2.26066
20.0808 6.14111 2.30694
20.0691 6.12194 2.35374
19.6924 6.09472 2.24509
17.7745 5.52935 2.10222
18.9978 5.78898 2.2127
18.7876 6.03188 2.30196
17.0037 5.34274 2.11573
18.6952 6.13574 2.38893
20.2157 6.25511 2.48042
17.0774 5.49008 2.19409
17.693 5.77649 2.31677
18.691 5.82098 2.3139
17.2481 5.55706 2.26207
17.7831 6.09609 2.48901
18.5174 5.99636 2.43769
19.1712 6.45202 2.60898
17.533 5.92671 2.46178
15.4807 5.64032 2.40737
17.9551 6.26851 2.60093
19.0786 6.47237 2.72504
16.9243 5.70803 2.43187
16.3236 5.64003 2.3871
16.8631 5.88533 2.52687
18.324 6.32537 2.7488
16.6275 6.02566 2.61128
15.6152 5.74348 2.51551
14.1502 5.18507 2.27701
16.6833 6.02726 2.6902
15.7981 5.72459 2.63418
16.1374 5.74183 2.53341
16.7233 5.98427 2.73061
14.9318 5.44513 2.47098
15.0452 5.85652 2.68897
15.4597 5.97374 2.72777
14.9702 5.6969 2.65194
15.0906 5.74064 2.7247
15.6826 5.7385 2.65625
15.0929 5.90598 2.69479
15.7576 6.28825 3.04414
15.4321 6.29542 2.99418
16.0645 6.06982 2.81807
13.026 5.50681 2.80852
15.2174 6.07801 2.88565
14.8014 5.89785 2.96561
14.0804 5.59822 2.68318
15.6739 6.37761 3.16464
14.7588 5.64855 2.79471
16.3443 6.53119 3.26951
16.0016 6.57648 3.27264
15.095 5.79451 2.92214
14.7205 5.88977 2.97168
14.7474 6.0651 3.02943
12.5874 5.47413 2.81057
14.1029 6.02464 3.08303
14.0988 5.90825 3.09137
14.7129 6.28859 3.33628
14.6235 6.18528 3.30422
13.5417 6.24193 3.34214
14.3031 6.18229 3.2349
14.0336 6.34647 3.35215
13.6712 6.19802 3.37492
13.9885 6.05211 3.29122
13.2667 5.80766 3.16746
14.4219 6.29026 3.40174
11.8825 5.32772 3.03718
13.6448 6.11582 3.32898
13.8012 6.3637 3.60321
13.4475 6.32654 3.45679
13.0344 6.00123 3.36997
12.5395 5.98308 3.45012
14.359 6.62502 3.73439
13.4188 5.96255 3.38241
13.0067 6.20473 3.57196
13.5086 6.29545 3.649
12.5061 5.92466 3.44787
12.1243 5.70843 3.40273
13.0907 6.36847 3.68821
13.0496 6.59466 4.08827
12.9274 6.43637 3.68841
12.8679 5.97934 3.50976
12.8379 6.73288 4.08074
11.8663 5.87746 3.46922
11.7822 5.92353 3.57332
11.2108 5.38618 3.346
10.9575 5.48782 3.37429
11.6244 5.50959 3.32478
12.0831 5.77041 3.57847
10.8463 5.58593 3.64656
13.3388 6.41608 3.75718
10.8603 5.6661 3.65098
11.5122 5.95934 3.73037
11.4906 6.19895 3.98894
11.8406 6.29019 3.93309
11.2168 5.69072 3.65382
12.2952 6.74872 4.36603
11.4208 6.25547 4.04607
11.9037 6.33522 4.03137
11.3835 5.67787 3.79003
10.4766 5.91214 3.96983
11.2575 6.41283 4.26491
11.5542 6.26625 4.06095
11.8208 6.29509 4.24675
11.4765 5.95936 3.82599
10.4814 6.3653 4.41187
11.2859 6.3377 4.2341
11.5207 6.19618 4.17856
10.4397 5.81182 4.11028
10.9906 5.79108 3.91978
11.1523 6.31268 4.34519
10.4478 5.95896 4.12454
10.8552 6.23107 4.38812
10.0863 5.96515 4.09121
10.4079 5.94585 4.05754
10.8424 6.4018 4.50804
11.116 6.50954 4.59631
10.6431 5.9446 4.19785
10.2503 6.00207 4.26828
10.0235 5.77221 4.12665
9.51234 5.5502 4.06452
10.506 5.99191 4.31046
10.8849 6.38217 4.65847
11.3667 6.76046 4.92324
10.0729 6.15739 4.51305
10.722 6.54409 4.77038
9.51867 5.5256 4.37127
9.39352 5.4574 4.03456
9.61321 6.44018 4.8394
9.32909 5.66505 4.31762
9.33579 5.92704 4.56058
9.2589 5.85699 4.45816
10.3435 6.26616 4.82803
8.65177 5.49583 4.04736
9.80896 6.04815 4.68689
10.3067 6.63279 5.03673
9.37072 6.35504 4.87701
8.69273 5.54278 4.39667
8.71852 5.75673 4.5182
9.50396 6.3117 4.83605
8.86853 6.05616 4.8576
8.93392 5.95714 4.78603
8.76628 6.25568 5.07916
9.13404 6.20785 5.05757
9.58081 6.05452 4.79152
8.4782 5.83007 4.72092
8.82076 5.23564 4.10151
9.34104 6.32972 5.22576
9.0355 5.65475 4.58405
9.74828 6.87334 5.64454
9.55375 6.37601 5.28431
9.32969 6.27724 5.1684
9.39689 6.22007 5.1471
9.26411 6.36929 5.3314
9.06706 6.09695 5.04834
8.77815 5.80706 4.80459
8.8968 6.04706 4.99674
9.06144 6.3223 5.33268
8.51628 6.37821 5.62495
8.44657 6.04788 5.11039
9.25142 6.60756 5.82787
8.97999 6.24423 5.35479
8.87497 6.31301 5.51838
8.43456 5.85159 5.06092
8.92118 6.60278 5.72445
8.07006 5.78634 5.25141
9.09936 6.21823 5.44756
8.02003 5.68429 5.0872
8.51778 5.85641 5.15457
8.01582 5.93754 5.25888
8.04204 6.29306 5.86853
8.66196 6.03074 5.44128
8.36441 5.88021 5.17192
8.98949 6.44261 6.00124
8.24139 6.16844 5.67616
8.21834 6.29068 5.65296
8.21874 6.36441 5.89729
7.84532 5.74323 5.26125
8.05956 6.36258 5.98246
7.46018 5.24359 4.85804
7.84371 6.28922 5.62982
7.45302 5.44824 5.11422
8.27321 6.27264 5.97963
8.01932 6.51766 6.33578
8.05692 6.26053 5.91277
7.74564 6.07703 5.69089
7.2638 5.72014 5.50643
7.71706 6.13765 5.66924
7.89522 6.23389 5.87922
7.18357 5.82083 5.58236
6.96677 5.50757 5.71244
7.72112 6.01477 5.84042
7.74792 6.22259 5.91779
7.7623 6.45837 6.33439
7.68739 6.00101 5.85816
7.05841 5.61935 5.56055
6.96892 5.82412 5.8874
7.98381 6.65958 6.59764
7.23227 5.8517 5.85934
6.8609 5.65091 5.69906
6.97093 5.77827 5.87608
7.39491 6.20669 6.18282
6.82034 5.46364 5.54027
6.99655 5.98124 6.20341
6.97397 5.81239 5.93849
7.31605 6.09377 6.19642
7.27142 5.65705 5.83638
7.69 6.31821 6.33793
7.02185 6.27644 6.74141
6.60263 5.77073 5.99398
6.74269 5.82692 6.31021
7.24551 6.04041 6.36569
7.40369 6.54827 6.64306
6.7304 5.77825 5.98879
6.82805 6.06032 6.54289
6.58577 5.75012 6.24231
6.68823 6.42974 7.00704
6.8558 5.90702 6.25455
6.56388 5.87797 6.50894
6.70187 5.60768 5.96583
6.59499 5.90203 6.36928
6.55211 6.1896 6.8888
7.35788 6.15639 6.56493
6.63094 5.95146 6.64056
6.8184 5.80724 6.23278
6.13041 5.40698 6.25297
7.40761 6.34976 6.70524
6.61569 5.84872 6.35555
6.38967 6.13063 7.13304
6.40658 5.905 6.83503
7.10395 6.28982 6.95007
6.53365 6.07898 6.8144
6.74734 5.86781 6.47878
6.47714 5.78598 6.48589
6.44882 5.90942 6.81758
6.58382 6.12526 7.15238
6.30402 5.93454 6.87953
6.73975 6.38903 7.13154
6.65252 6.63505 7.77852
6.54956 5.87897 6.87441
6.94171 6.66871 7.76253
6.32823 6.40327 7.48383
6.18344 5.68467 6.5057
5.93678 5.87204 7.11583
6.35747 6.08323 7.34794
7.10629 6.82872 7.92603
5.88888 5.76641 6.90752
5.65267 5.18043 6.07131
6.57715 6.50057 7.73118
6.3897 6.46938 7.765
6.39518 6.13639 7.43656
6.42212 6.36934 7.63605
6.51809 6.56569 7.97525
6.75236 6.6104 7.75674
5.82834 6.31729 7.97617
5.80954 5.89019 7.27164
6.16536 6.18345 7.48708
6.26111 6.35906 7.63915
5.66414 5.6576 7.49742
6.05578 6.02753 7.5211
6.0401 5.86088 7.41949
6.32163 5.95986 7.43128
5.82793 5.91734 7.18709
5.5835 5.45959 6.71256
5.58751 5.88521 7.1874
5.81411 5.96814 7.88807
6.08038 6.41013 7.93645
6.31749 6.96888 8.37019
5.46114 5.8639 7.69743
6.04671 6.28914 8.12583
5.77496 6.35659 7.9955
5.88127 6.22194 8.031
5.72207 5.64771 7.31187
5.31586 5.8967 7.84536
5.96841 6.50727 8.71757
6.39547 6.79637 8.69804
5.94358 6.39177 8.29259
6.03588 6.3127 8.06423
6.27278 6.89888 9.01909
5.78115 6.23329 8.50274
5.71193 6.03058 8.35728
5.83247 6.50148 8.42232
5.94718 6.7561 8.82848
5.46377 5.80121 8.28054
6.32071 6.71714 8.74199
5.9471 6.631 8.40664
5.18238 5.87794 8.4521
5.82336 6.40095 8.57973
5.25909 6.15158 8.49805
5.33761 6.45039 8.66451
5.02173 5.76578 8.29472
5.5215 6.08878 8.24509
5.6221 6.66536 9.47778
5.91981 6.37523 8.32495
5.77985 6.55483 9.22881
6.37256 7.57817 10.3696
5.87677 6.90375 9.58924
5.60747 6.1694 8.6976
5.80811 6.1069 8.29006
5.53779 6.61507 9.19154
5.5172 6.50535 8.82938
5.20292 6.26456 8.91852
5.32515 6.30683 9.49615
5.7996 7.07699 9.73919
5.88276 6.24159 8.34889
4.31041 5.38793 8.30908
5.17669 5.81497 8.57
5.76242 6.60503 8.92264
5.00313 5.89656 8.52078
5.02503 5.96534 8.91469
5.49894 6.29665 8.93545
5.17867 6.43574 9.1817
4.97186 5.87403 8.70468
4.61876 5.32599 7.7048
4.99046 5.95614 8.60383
4.73294 5.79659 8.86014
5.26173 6.17898 8.84816
4.7228 6.18896 9.04068
4.95601 5.81663 8.60693
4.84547 6.08248 9.43318
5.32609 6.32189 9.11022
4.44198 5.58377 8.317
4.87748 5.90465 9.19637
5.46444 6.38816 9.32969
4.7088 5.73289 8.76265
4.79199 5.86306 8.66758
4.784 5.83504 9.09228
5.18122 6.19527 9.19958
4.61194 5.60364 8.56546
4.58605 5.62219 8.7156
5.05005 6.01136 8.8999
4.62025 5.75175 8.97316
4.81042 6.39579 9.702
5.10093 6.65861 10.208
4.83075 6.24796 9.97965
4.87061 5.98565 9.24929
4.50986 5.76064 9.44658
5.14489 6.92842 10.5546
4.44737 6.20746 10.4217
4.93242 5.96816 9.10336
4.67913 6.02467 9.22985
4.81476 6.54081 10.0224
4.68682 6.30049 10.5339
4.81111 5.8708 9.19725
4.30527 5.88199 9.02318
4.62644 6.21527 10.2158
4.626 6.46139 10.244
4.47994 6.28888 10.831
5.3752 6.36275 9.41727
4.46848 6.00801 9.59009
4.53701 6.36047 10.1966
4.43658 5.87738 10.1633
4.90157 6.33738 10.3392
4.66553 6.36607 10.4257
4.5871 5.88097 9.4661
4.56118 6.50641 10.6623
4.49783 5.95355 10.0961
4.61739 5.84847 9.55079
4.77914 6.7331 11.4182
4.87728 6.69961 10.9806
5.02217 6.41458 10.2919
4.38934 5.9132 9.62699
4.54767 6.58229 10.9809
4.45046 6.17154 10.2621
4.42627 6.35027 10.7288
4.63513 6.36204 10.7173
4.62533 6.57083 10.6027
4.44335 5.88708 10.2527
4.28614 6.36377 11.1852
4.28352 5.78888 9.64559
4.64404 6.89507 11.6962
4.43208 6.74666 11.4319
4.42831 6.48602 11.4889
4.7071 6.10745 9.93892
4.22213 6.02486 10.4082
4.69987 6.22475 10.563
4.18785 6.26404 11.0848
4.47005 6.13662 11.1188
4.48972 6.59728 11.7331
4.76181 6.91083 11.6427
4.30425 6.40996 11.2252
4.47155 6.52351 10.9472
3.92573 5.8865 10.7406
4.89516 7.16648 12.4265
4.50961 6.89674 11.6574
4.3147 5.94844 10.4857
4.1581 6.52016 12.1736
4.73722 6.92339 11.8741
3.95609 5.96648 10.9237
4.1737 6.18231 11.0572
4.10994 6.29218 12.0479
4.51453 6.3478 11.1391
4.16829 6.23222 11.2296
4.27994 6.21781 11.3943
4.20691 5.98756 10.8207
4.09157 5.89625 10.8307
4.00841 6.06785 11.3963
4.24852 6.0385 11.0332
4.38906 6.40152 11.1513
4.1736 6.25498 11.4659
4.08242 5.9299 10.8434
4.09091 6.39359 12.0236
4.1552 6.13235 11.1363
4.24361 6.35662 11.7056
4.13307 6.60034 12.6806
4.33747 6.34334 11.4036
4.22515 6.3366 11.8308
4.12892 5.7649 10.8381
4.01989 6.3121 11.8483
3.98413 6.38296 11.799
3.96143 5.99955 10.7536
4.03212 6.40937 12.3079
4.13567 6.80777 12.7508
3.89477 6.31384 11.8476
3.60643 5.53557 10.5341
3.94088 6.19623 12.2066
4.00746 6.4049 11.9754
4.22632 6.38103 11.9674
3.77399 5.7868 11.1102
3.69898 5.55879 10.9095
4.02441 6.06865 11.4801
3.80785 6.15642 12.0773
4.02207 6.22606 11.8334
4.15331 6.95342 12.978
4.02492 6.38739 12.6502
4.16614 6.53812 12.3446
4.12735 6.84839 13.3503
3.93302 6.28391 12.424
3.89544 6.19112 12.6985
4.15409 6.55975 13.1671
3.96767 6.63555 12.6601
3.83399 5.87389 11.8579
3.69263 6.20427 13.041
4.41984 6.60416 12.7182
4.14191 6.54385 12.8432
4.10556 6.58212 13.1261
3.97574 6.54604 12.8454
3.7274 6.00761 11.6703
3.71277 6.05382 11.7759
3.63019 5.97726 12.2107
3.76588 6.45891 13.401
4.01901 6.9194 13.9471
3.79277 6.16526 11.9863
3.85095 6.30668 12.4507
3.53028 5.92935 11.8101
3.59996 6.33154 13.3135
3.66753 6.05906 12.2916
3.57448 5.66741 12.1923
3.66833 6.03952 12.0853
3.55934 5.97433 12.7879
3.81787 6.50121 13.0373
4.1623 6.81824 13.2528
3.44618 6.17667 12.5988
3.54488 6.09308 13.106
3.94713 6.39185 13.001
3.845 6.41543 13.3521
3.78871 6.78251 13.9101
3.78158 6.22212 13.1822
3.67078 6.43447 13.2281
3.29339 5.69811 12.3183
3.5296 5.77832 12.5985
3.68607 6.34518 12.8632
3.70379 6.54121 13.7122
3.64378 6.31134 13.1433
3.49885 5.97138 12.965
3.716 6.33969 12.9991
3.67141 6.21051 13.2725
3.62651 6.44337 13.9701
3.73345 6.51158 13.2569
3.49807 6.0683 12.9239
3.42436 6.40323 14.7323
3.579 6.11487 12.9904
3.59044 5.95134 12.8657
3.65272 6.54319 14.4083
3.66996 6.44906 13.5146
3.47751 6.40609 13.8541
3.55277 6.33381 13.6947
3.43282 5.95509 13.1989
3.60374 6.68882 14.6308
3.72688 6.45688 14.0226
3.34281 5.85574 12.4811
3.55829 6.52867 13.7644
3.41627 6.25596 13.9779
3.40955 6.50659 14.3641
3.5541 6.19758 13.8254
3.4473 6.63014 14.1645
3.19522 6.1781 14.0528
3.35298 6.50955 14.9488
3.58442 6.47719 14.4973
3.49609 6.02582 13.6339
3.31998 6.27148 14.2685
3.39305 5.83888 12.5966
3.54593 6.83842 14.8147
3.35949 6.30492 14.3777
3.71284 6.37077 13.8823
3.24921 6.28852 14.2492
3.46641 6.40635 14.8947
3.52682 6.24602 13.6721
3.24253 6.10646 13.9773
3.23062 5.94149 13.1917
3.48538 6.81609 14.8885
3.26833 6.26652 14.0627
3.02867 6.3678 14.5374
3.30527 5.76308 13.9381
3.5816 6.60258 14.8867
3.31392 6.35878 14.2329
3.11159 6.10253 15.1079
3.65679 6.78043 14.8386
3.34351 6.18627 14.4307
3.61827 6.50052 14.5377
3.4129 6.35491 14.7216
3.33549 6.8281 15.4953
3.58839 7.08529 16.8208
3.54089 6.24505 13.805
3.10269 5.92888 14.0227
3.39397 6.81486 15.0083
3.03573 5.94969 15.0112
3.37143 6.49902 14.9633
3.21057 6.49492 15.9838
3.3829 6.63505 15.9396
3.42725 7.03001 16.3211
3.4588 6.55595 15.4232
3.3105 6.441 15.793
3.40661 5.81824 13.4337
3.27921 6.76104 16.1084
3.267 6.41893 16.3442
3.59944 6.76435 16.1008
3.31816 6.17963 14.7313
3.1216 6.00579 14.298
2.90614 5.62587 13.4379
3.18437 6.71573 16.4127
3.50391 6.67274 15.7213
3.3406 6.39286 15.0586
3.26634 6.83648 17.0302
3.25531 6.1557 14.7242
3.2676 6.47194 15.3025
3.25786 6.2645 15.8674
3.36706 6.44916 15.4244
3.21452 6.25337 15.1302
3.2713 6.62573 15.5464
3.2128 6.20635 14.907
3.06806 6.9317 16.9857
3.42048 6.17055 15.3655
3.25924 6.58256 15.6006
3.10182 6.44152 16.8927
3.49685 6.94029 16.5498
3.36878 6.7356 16.0276
2.97238 6.1967 16.0563
3.3256 6.62101 15.3878
2.98626 6.57646 16.7868
3.14589 6.69112 17.1816
3.35493 6.5244 16.2887
3.35124 6.86312 16.5814
2.98454 6.24782 15.3677
3.10178 6.57982 15.9431
2.67288 6.05442 16.4014
2.83833 5.99238 15.9416
3.24248 6.79808 16.3836
3.08031 6.60309 16.6523
3.01968 6.16527 15.78
3.08391 6.76608 16.9888
3.29666 6.87566 16.9649
2.94196 6.48295 16.2721
2.97994 6.26314 16.1541
3.11962 6.83573 17.4685
3.17044 6.91154 17.6472
3.17442 6.40172 16.1184
2.99056 6.31785 16.1535
3.12689 6.28073 16.7913
3.20642 6.48878 16.0455
3.12344 6.47826 16.8008
3.14542 6.70329 17.5473
3.14337 6.64042 17.0947
3.2858 6.97335 17.4466
3.07953 6.52665 16.947
3.23153 7.16809 18.2083
3.15983 6.81167 17.8321
3.11302 6.87333 17.5994
3.03878 7.06343 17.7637
2.94741 6.79403 18.9077
3.45522 7.48101 19.9
3.46791 7.08117 16.9967
2.77388 6.45296 18.8029
3.08788 6.8231 17.7913
3.23326 7.21242 18.3542
3.00781 7.01906 19.6591
3.18894 6.53737 16.5267
3.04652 6.78806 17.894
2.93648 6.50429 17.0168
2.92168 6.26407 17.3471
3.17445 6.92016 17.7369
3.00486 6.38794 18.2627
3.30426 7.19242 18.8751
3.41954 6.95233 17.6516
3.03995 6.61432 17.203
2.92584 6.64876 18.6463
3.08564 6.67136 18.1355
3.20387 6.80482 17.131
2.81208 6.29056 17.3025
3.08315 7.3463 19.7132
2.91953 6.05659 17.0186
2.92445 6.63092 17.412
2.82783 6.56597 17.3967
2.82021 6.66701 19.0547
3.2486 7.08154 18.8917
2.96824 6.49092 16.8859
2.66117 6.11505 16.5484
2.90333 6.93461 19.0698
3.08326 6.3119 17.2741
3.00073 6.42339 17.743
3.0483 7.02259 18.1241
2.83847 6.46137 18.2063
2.66324 5.95203 16.7647
2.83028 6.59994 17.2247
2.90037 6.65853 18.1116
3.02424 7.05659 19.1203
2.6728 6.39046 18.264
2.87223 6.27679 17.1797
2.82555 6.13343 16.2874
2.98495 6.85103 18.3704
2.57928 5.96767 16.9854
2.74604 6.2272 17.4006
2.79684 6.86408 19.1906
2.96523 7.12213 19.9699
2.91817 6.01687 16.8018
2.65662 6.19866 17.5487
2.74399 6.49219 18.0027
2.80933 7.02349 20.4749
2.89445 6.58314 19.2354
2.80721 6.27931 17.6348
3.04243 6.86718 17.9641
2.69711 6.2063 17.6329
2.79873 6.29064 17.6895
2.57009 6.08752 18.4018
3.01008 6.72416 19.3113
3.00976 6.6524 18.5031
2.8863 6.86848 18.8536
2.88134 7.36865 20.6393
2.74611 5.76426 15.9869
2.58215 6.55874 18.8631
2.68862 6.1967 19.001
2.9033 6.43876 18.7788
2.90591 6.79607 17.8134
2.58163 6.18703 18.7485
2.77913 6.3689 17.8749
2.71188 6.39522 18.1364
2.70007 6.44437 18.8371
3.00776 6.84981 18.7854
2.65807 6.69569 18.1835
2.44486 6.64419 20.2774
2.74815 6.21792 18.5019
2.50893 6.081 17.5184
2.61373 6.27692 19.1649
2.62442 6.22408 18.1663
2.60168 6.51154 18.8802
2.63973 6.041 16.8438
2.53784 6.428 18.956
2.62041 6.1026 17.3438
2.68957 6.51268 19.4635
2.64588 6.2636 18.0211
2.51879 6.18625 18.8723
2.9783 6.88187 19.2742
2.53226 6.28699 19.3634
2.56588 6.30281 18.2557
2.43934 6.13031 19.1543
2.7288 6.18153 17.6859
2.51001 5.90115 16.9956
2.36698 6.15262 19.3136
2.7812 6.29946 17.281
2.48468 6.43468 18.8573
2.64975 6.14163 16.7885
2.40827 6.55549 20.9151
2.79323 7.06316 20.9539
2.70971 6.83556 20.5287
2.71571 6.82026 20.0683
2.60401 6.38282 19.4836
2.889 7.0959 19.9854
2.53785 6.63251 20.2534
2.65814 6.90651 20.8569
2.86338 6.90755 20.3528
2.68201 6.6684 20.6046
2.71232 6.66092 20.152
2.80844 6.50103 18.186
2.62041 5.95657 18.7838
2.50741 6.64327 20.0986
2.61777 6.16211 19.1202
2.70496 6.89904 20.7277
2.61354 6.61179 20.2545
2.63315 6.87542 20.837
2.5373 6.779 21.2177
2.64618 6.30095 19.5171
2.70409 6.69209 19.6898
2.60479 6.48656 19.0545
2.48311 6.83818 21.3548
2.54107 6.34451 19.4743
2.52098 6.54276 20.1172
2.60788 6.36205 20.1087
2.47192 6.91853 20.8404
2.7588 6.33148 18.8011
2.36974 6.00677 18.5553
2.40226 6.39254 19.3203
2.43126 5.92173 18.0465
2.36983 6.36059 19.1546
2.42441 6.81109 22.1873
2.65521 6.69986 20.82
2.7452 6.66293 20.6308
2.64335 6.90574 20.8002
2.50123 6.86032 22.2812
2.55314 6.31505 20.0462
2.63123 6.84424 21.1237
2.68667 7.48457 22.9836
2.61985 6.66362 20.8446
2.61335 6.28531 19.6818
2.58439 6.44254 18.8405
2.31751 6.49444 21.3943
2.48783 6.50112 21.0691
2.62034 6.8256 20.3908
2.44668 6.29202 20.1847
2.55422 6.64411 21.4839
2.67286 6.82687 19.7462
2.21294 5.76928 20.4467
2.52009 6.44239 20.6576
2.66194 6.31634 18.604
2.38391 6.21303 19.9789
2.5003 6.93969 20.4213
2.38241 6.12082 20.5672
2.59706 6.67989 21.3819
2.55754 6.13185 19.0671
2.29905 6.18553 20.1001
2.51957 6.57761 22.8831
2.71317 6.83554 20.9868
2.48491 6.31045 20.483
2.61896 7.34202 21.9252
2.37873 6.21988 19.856
2.47922 6.48222 21.9821
2.67689 6.79206 20.396
2.38836 6.66967 21.7785
2.60356 6.89961 22.5608
2.61733 6.59861 20.4829
2.19772 6.33353 21.6663
2.62679 6.8473 21.0895
2.46235 6.51521 20.9571
2.47348 6.68704 20.6416
2.26909 6.13041 20.0233
2.32936 6.28893 20.8563
2.3625 6.46566 20.7892
2.38939 5.83973 20.2287
2.46071 6.91837 21.6736
2.39605 6.47844 20.9416
2.39862 6.24664 20.4046
2.42952 6.38836 20.9214
2.33271 6.4228 21.267
2.36077 6.64916 20.9781
2.16676 6.05351 20.1309
2.23902 6.41918 21.318
2.34508 6.1714 21.3813
2.51765 6.82203 22.2795
2.54965 6.47718 20.4503
2.3141 6.46438 23.1753
2.44416 6.60664 20.3263
2.19019 5.98798 21.0298
2.43066 6.63824 19.7319
2.22327 6.28493 22.1587
2.50562 6.87997 22.8325
2.62444 7.1771 22.8173
2.38882 6.78203 22.4259
2.48137 6.47912 21.6843
2.42751 6.80109 22.7637
2.54308 6.45486 23.1896
2.62323 7.1952 22.6461
2.54623 6.7117 20.5962
2.29903 6.97148 21.8965
2.26013 6.15124 21.9422
2.39845 6.43625 21.0708
2.33838 6.35073 21.1933
2.30842 6.36119 21.2577
2.39262 6.53848 21.329
2.28495 6.59682 22.4448
2.31167 6.60202 23.3805
2.48724 7.0252 21.9618
2.35845 6.87699 24.3681
2.45996 6.22798 19.4055
2.18662 6.1325 20.1694
2.20489 6.48682 23.1406
2.39773 6.10515 21.0054
2.47258 6.64591 21.5585
2.32012 6.78282 23.3509
2.36881 6.43738 22.147
2.38937 6.74352 22.7935
2.41008 6.55942 21.022
2.24827 6.69184 23.6424
2.45281 7.43645 26.0809
2.52393 6.70211 22.0112
2.32562 6.91204 23.1117
2.30401 6.18643 22.2769
2.25303 6.13511 20.715
2.32201 7.41683 24.3518
2.35057 7.00883 23.3332
2.24781 6.43783 21.372
2.25645 6.28739 22.161
2.30622 6.7872 24.9584
2.65667 7.00141 22.3386
2.34313 6.4968 22.9687
2.49422 7.30818 23.2062
2.2928 6.58678 22.5985
2.40342 6.86891 23.6266
2.38321 6.64263 23.2123
2.25064 6.24075 22.8084
2.45322 7.08603 22.6464
2.20831 6.49119 22.6918
2.20213 6.07455 21.1262
2.2268 6.62261 23.2175
2.34931 6.37579 24.0908
2.57536 7.53269 23.9488
2.37105 6.99504 23.8264
2.24041 6.02532 22.2608
2.29533 6.25762 21.3306
2.28682 7.08968 23.1178
2.2547 6.08938 22.5506
2.32843 6.77393 22.8904
2.23908 6.99214 23.9231
2.18294 6.2034 23.611
2.29709 6.41707 22.6302
2.35366 6.55149 22.7285
2.2284 6.84956 24.8481
2.61137 7.25375 24.1157
2.36915 6.54726 22.5284
2.27171 6.59894 22.2824
2.19507 6.45661 23.8986
2.35908 6.89553 23.7489
2.39162 6.55236 22.5982
2.13909 6.40171 22.8024
2.14271 7.0673 23.7384
2.2561 7.09693 23.8424
2.1688 6.50996 23.5179
2.30912 7.73039 26.7487
2.42961 6.82455 24.4946
2.34312 6.81345 23.9791
2.41151 6.93863 25.4881
2.48934 6.57451 23.1446
2.20281 6.61086 25.6775
2.54633 6.8362 22.6758
2.24634 6.52777 22.8728
2.32324 6.99383 23.7014
2.20726 6.44299 23.2663
2.1608 6.74992 25.9935
2.46161 7.23487 24.4915
2.30304 6.58655 24.8445
2.46564 7.11771 23.1305
2.02723 6.40149 25.4311
2.42889 6.93643 23.7754
2.16943 6.5484 24.0909
2.37945 6.74901 23.1952
2.1308 6.65045 22.5005
2.16183 6.94719 25.0667
2.24468 6.71123 25.1575
2.30381 6.70091 22.9435
2.08051 6.56234 24.4581
2.30825 6.67808 24.0077
2.24422 6.41414 24.2418
2.30874 6.41623 24.686
2.30084 7.76373 25.1053
2.09927 7.13501 26.5025
2.3981 6.58872 24.8489
2.35961 6.53599 24.2948
2.38349 7.14625 24.904
2.33715 6.98629 24.855
2.30812 7.41514 26.6549
2.4747 6.98436 23.7085
2.22484 6.98832 24.3759
2.00781 6.66852 25.8143
2.29738 7.05202 26.9716
2.49716 7.18495 26.0541
2.4167 7.03035 25.196
2.27081 6.04758 22.0823
2.06821 6.85355 24.3523
2.35118 7.111 24.8477
2.23042 7.50789 26.7337
2.46477 7.3611 26.2565
2.32497 6.79457 24.8076
2.27599 7.04301 24.9293
2.15718 6.64321 25.9923
2.34615 7.18951 25.6772
2.33939 6.33608 22.0655
2.16819 6.4455 24.7726
2.29239 7.57871 25.6032
2.35311 7.15027 26.055
2.11451 6.40248 23.9475
2.09408 6.54463 23.6935
2.16467 6.59831 23.6415
2.18269 6.18874 22.4855
2.07492 6.33381 23.5762
2.12589 6.47299 24.9846
2.34507 6.82527 24.734
2.13028 6.36315 25.0543
2.20103 6.4366 24.0747
2.1338 6.56397 23.9774
2.23079 7.14169 26.6099
2.28931 6.72609 24.9233
2.27712 7.55087 27.6653
2.46765 6.96286 24.6996
2.26079 7.01151 25.4667
2.16574 7.59196 26.6555
2.29106 6.82109 24.2884
2.10944 6.71583 24.5588
2.08298 6.22827 23.3517
2.00753 6.47688 24.7948
2.16518 7.04004 27.7339
2.3045 6.65467 24.002
2.19301 7.43782 27.9939
2.35805 7.29577 26.8967
2.2362 6.7711 27.1736
2.23447 7.12883 24.7237
2.13934 6.70981 23.6195
2.04967 6.69351 22.937
2.03367 6.21561 24.5103
2.06259 6.77955 26.992
2.15314 5.87798 22.8252
2.05026 6.59308 23.9675
2.05621 6.353 21.5086
1.81254 6.64714 25.0576
2.14231 6.26856 25.2924
2.08945 6.79083 25.5014
2.21832 6.4607 22.9577
2.00321 6.26339 24.2268
2.11317 6.64998 22.0103
1.97352 6.34189 26.9363
2.31657 6.96947 24.2868
2.15825 6.86732 27.6686
2.37941 7.07261 25.4255
2.07084 6.67378 25.5671
2.28564 6.74397 24.6774
2.16705 6.64665 24.584
2.04372 6.55746 22.9613
1.91237 6.20436 24.9549
2.17182 6.06984 24.0261
2.12171 6.8892 27.0404
2.31002 6.74625 26.6747
2.35364 6.65598 25.6815
2.18622 6.9317 25.7745
2.23726 6.85124 26.4611
2.11743 6.80857 25.9188
2.188 6.63645 23.459
1.99882 6.85557 26.0007
2.26821 6.72979 24.8038
2.08514 6.72464 26.144
2.121 6.7048 25.7458
2.23094 6.62502 23.5832
2.04071 6.594 25.9123
2.16178 6.79369 23.804
1.99905 6.4166 24.2149
1.98657 5.92978 24.6265
1.96535 6.63747 25.2309
2.16724 6.75548 24.7315
2.02924 7.10117 27.3429
2.28681 7.00295 24.0056
1.9857 6.69499 26.3234
2.15655 6.71155 26.401
2.1719 6.82081 25.7643
2.13459 6.54168 25.5602
2.14635 6.72571 21.8119
1.82427 6.38828 28.8151
2.36832 6.42792 24.3383
2.05133 6.3232 25.3984
2.03753 6.84154 24.7168
2.09934 6.937 25.1555
2.07152 6.5582 25.6548
2.14287 6.13153 25.3722
2.11408 6.71797 25.957
2.03539 7.15499 27.4189
2.28036 6.99558 26.3397
2.07572 6.75143 25.4476
1.99852 6.936 25.5351
2.08557 6.18793 24.0078
2.06496 7.05664 26.8603
2.13147 6.93185 27.5709
2.14435 6.92707 28.1174
2.36114 7.30121 27.7056
2.11196 6.80332 25.8011
1.95789 6.72606 25.6359
2.20949 7.1301 28.3693
2.34728 7.01782 24.8347
2.06156 6.63617 24.9447
2.12948 6.46092 25.9131
2.12425 6.44044 27.6494
2.2442 6.94062 26.4064
2.06609 6.99456 25.2801
2.01563 6.29128 23.756
2.00052 6.09904 25.1457
2.15495 6.97313 25.9061
2.02864 6.43211 24.2247
1.90702 6.25438 24.9256
2.03251 7.10225 25.3097
2.11379 6.31599 25.4526
1.93958 6.3508 26.7115
2.1165 6.76315 24.4516
2.03706 6.44767 25.0642
2.12304 6.71099 25.7749
2.03453 6.76002 26.0397
2.03109 6.80978 26.7343
2.12298 7.34007 27.5297
2.12582 6.69706 24.2859
1.97024 6.27608 25.7097
2.06773 6.83936 26.1501
2.00363 6.3514 23.9397
1.90486 6.64287 26.1508
1.99693 5.71734 23.4168
2.01924 6.89171 25.853
1.95724 6.09601 24.957
1.99496 6.58242 24.8008
1.96259 6.72265 24.7524
1.87198 6.31547 26.589
2.12953 6.75654 25.2603
2.01988 6.63664 24.8481
1.92479 6.65103 27.1637
2.00523 6.87872 27.2587
2.16251 6.46699 28.0425
2.24804 7.17514 24.5609
1.88201 6.84097 30.0653
2.33876 7.80331 27.1086
2.08685 6.37517 25.6764
2.04303 6.70596 25.4057
1.89737 6.4171 27.5143
2.21633 6.96395 26.0528
2.01935 6.56616 27.822
2.30807 7.16169 25.8878
2.00088 6.57305 25.3371
1.93924 6.57956 28.1595
2.26259 6.60233 24.6739
1.99203 6.68708 25.578
1.95415 6.32668 25.5093
1.94194 6.79026 26.8356
2.06902 6.78677 25.3341
1.97561 6.74893 28.0402
2.11863 7.17371 27.1957
2.18469 6.83868 26.7827
1.99612 6.76144 28.0968
2.09685 7.08455 26.707
2.00427 7.02338 25.2877
1.99219 6.50902 25.8819
2.00637 6.37039 26.3906
2.03988 7.03159 25.1443
1.97018 6.23187 26.7066
2.11366 6.90256 27.74
2.08411 7.03272 26.8795
2.0867 6.84702 26.5997
2.14257 7.69431 27.4014
2.13918 6.71618 26.5132
2.01225 6.63909 27.4892
2.12273 6.74992 26.8296
2.03599 6.46759 26.6122
2.13937 7.02593 28.8777
2.09685 6.89347 26.6159
2.13367 6.43921 23.9289
2.02948 6.84124 27.9713
2.10733 6.28368 25.8415
1.91531 6.60938 25.0482
1.98511 5.75352 23.7548
1.89834 6.46653 27.7751
2.20097 6.87117 27.0595
2.09862 6.56243 26.5023
2.04938 6.28641 24.5124
1.9332 6.54484 25.074
1.94132 7.33234 27.7463
2.25485 6.59053 24.7192
1.87437 6.31708 24.7816
1.85105 6.46894 28.3627
2.17574 7.04717 27.1645
2.11583 6.493 25.5091
2.00958 6.7248 28.0064
2.20434 6.68726 26.1863
2.06876 6.76163 26.557
2.05551 6.20172 25.428
2.02887 6.4498 25.2007
2.11163 7.43496 30.5842
2.35165 7.10282 26.9544
2.08143 6.49682 24.3938
1.92459 6.65488 26.0853
2.11362 6.53128 26.495
2.0762 6.28014 25.412
1.98612 7.11688 27.3467
1.9998 6.80723 27.3156
2.0123 6.86493 28.1818
2.06796 7.30935 27.2115
2.10205 6.39999 24.9279
1.84118 6.80173 27.7619
2.07126 6.43952 26.0896
2.07548 6.3549 24.1857
1.87417 6.84005 28.8071
2.12912 7.05547 28.4392
2.2309 7.37119 25.9258
1.99642 6.31828 26.1913
2.01286 6.6695 27.1972
2.05682 6.92007 26.9072
1.9844 6.94567 27.3539
2.09268 6.59088 25.4522
1.92923 6.36824 28.9884
2.18695 6.99638 24.7188
1.91062 7.00359 28.0894
2.08516 6.03174 25.7112
1.85185 7.17903 29.3586
2.14884 7.28297 27.194
2.02091 6.83753 27.5258
2.121 6.60424 24.8515
1.99805 6.28419 26.835
2.01564 6.48898 25.6193
1.93985 6.82598 27.1027
2.04411 6.5754 26.3024
1.99648 7.27104 27.6357
2.0713 6.09163 25.2676
1.87911 6.84599 27.361
2.11716 6.48502 26.3846
2.08555 7.21493 27.8528
2.13716 6.33155 25.0506
1.94546 7.11101 26.789
1.97293 6.30282 26.3974
1.85895 6.52331 28.1656
2.09581 6.93515 28.549
2.15323 7.65492 28.2478
2.01622 6.86809 26.8717
2.01273 6.49334 26.7946
2.0666 6.27563 25.2949
1.89234 6.37578 27.9313
2.05188 6.37286 24.1521
1.74477 7.13184 27.0617
2.04331 6.85586 26.4981
2.1272 6.54057 27.302
2.07906 6.62932 26.3729
1.94107 6.93307 27.4846
2.11962 6.91008 27.9296
2.05866 6.81164 25.9702
1.96414 6.62618 26.7758
2.00175 6.51714 27.3624
1.95128 6.84118 27.525
2.09834 6.85563 25.8909
2.00563 6.95949 28.0824
2.20939 6.82001 26.6621
1.98325 6.45499 27.0032
2.02298 6.71067 26.9743
2.07426 6.84887 25.1187
1.89111 6.49686 29.303
2.2354 6.90886 26.8565
1.95518 6.94179 29.2001
2.16992 7.03314 25.7922
1.96768 6.40536 28.7096
2.12156 7.17168 26.4247
2.06606 6.62097 27.5272
2.09056 6.3858 24.732
1.8606 6.54575 28.8099
2.0635 7.87892 29.3998
2.25011 7.18182 25.9424
1.88646 6.13766 26.8435
2.00487 6.58641 25.3457
1.90001 6.42976 28.0858
2.16031 6.3888 27.16
2.04198 7.14412 28.4622
2.12133 7.2095 31.0207
2.27892 8.1207 27.5065
1.96777 0 0