# pn-170911/RbIIA-30-PTBB-1280-1959.psd
# Power spectrum* (dif=0,1,2) (really just |FT|^2)
# NOTE: only the first half! (symmetric)
# weeks: 1280-1959
# 3 clock-days, 0 excluded
# PSD: 1441
6655.98 0.0337262 0.00581337
237033 3.11834 0.000819691
969877 19.3595 0.00116094
141583 7.92364 0.00123317
108538 6.2477 0.00161625
56903.9 2.7815 0.000640175
19934.2 4.26967 0.00149085
31667.5 4.71748 0.00145126
7957.07 0.760292 0.00032787
7050.46 3.01059 0.00276054
4753.17 0.894762 0.000634358
6102.8 3.76804 0.00250562
4881.16 0.620557 0.00122917
11228.5 5.11394 0.00651356
3799.75 1.95659 0.00242754
1106.83 2.63725 0.00321943
4238.64 3.09853 0.00308427
1200.14 0.558865 0.00148424
3290.05 3.52109 0.00320358
3010.99 2.10793 0.00319315
4132.03 4.24877 0.00949413
1796.63 2.52851 0.00897711
788.702 2.48775 0.0051068
2266.47 4.00621 0.0106862
1275.05 2.09988 0.0051173
1283.72 3.53261 0.00603588
2934.19 9.364 0.0243981
352.557 3.93911 0.0149074
789.882 4.11235 0.0172598
932.108 3.10348 0.00870606
2693.77 5.68745 0.0246197
1111.88 2.62474 0.015159
288.588 0.988779 0.00608171
611.529 1.75605 0.0056469
1378.46 4.42677 0.0216648
1146.68 7.45774 0.0359193
233.027 0.702612 0.00690199
762.926 3.54236 0.0269928
393.527 1.11357 0.00664576
312.932 1.74128 0.00883854
644.696 7.04499 0.0560471
602.108 1.88848 0.0187243
695.039 5.21386 0.0532177
560.996 3.71367 0.0320604
248.613 1.09369 0.0162585
401.794 3.22677 0.0271885
409.082 2.44643 0.0236733
619.395 5.13734 0.0569704
397.024 3.07526 0.0338989
379.195 1.9063 0.0198172
203.33 0.491939 0.00380029
756.042 5.77109 0.069537
417.692 3.75308 0.0582579
544.679 5.32041 0.0596894
195.366 3.8318 0.0551322
155.969 4.39421 0.0711679
337.386 2.40072 0.0326085
226.433 2.43046 0.0434095
514.546 6.17059 0.107207
155.6 3.54942 0.0680562
298.171 3.83666 0.0691604
149.595 1.99713 0.03905
533.586 9.14114 0.161364
320.417 5.45091 0.124764
415.697 3.89717 0.0680106
8.35888 1.32617 0.0261558
89.7161 2.98425 0.0609261
232.768 2.55542 0.0573507
274.157 3.48422 0.0856519
553.993 7.91392 0.190465
174.858 4.08085 0.0862198
391.667 4.26236 0.102079
346.007 7.51555 0.184744
60.07 0.34801 0.0105307
133.845 3.83967 0.0888939
293.297 6.51187 0.183845
335.182 6.20183 0.154258
240.213 4.37629 0.123702
99.0791 3.45394 0.0953591
175.675 5.14049 0.145661
112.295 3.47016 0.111705
67.0271 4.194 0.14618
115.74 3.58928 0.121575
160.868 3.08534 0.101769
126.511 3.12245 0.1186
109.983 4.34226 0.172624
61.8847 3.72377 0.127814
137.447 2.85525 0.0882017
135.373 6.06589 0.242194
161.11 3.48284 0.134019
53.7552 1.59834 0.0709666
123.506 2.69337 0.100224
267.743 5.4141 0.206123
107.166 4.22328 0.16277
213.297 6.49214 0.263137
211.011 5.68154 0.258047
125.537 8.61879 0.395633
138.207 2.22794 0.101633
60.7243 3.72841 0.150119
22.3961 0.862464 0.0416179
189.021 7.79202 0.401543
221.348 5.8385 0.283433
31.4077 0.964699 0.0370552
53.2857 2.50559 0.134996
147.934 4.78911 0.244429
80.07 6.26672 0.329072
22.737 1.05468 0.0691006
71.3365 2.7671 0.150398
124.617 5.10061 0.305386
157.243 6.22634 0.323832
8.68443 2.27006 0.123307
44.7451 0.977121 0.0502221
91.0855 2.94106 0.172071
40.0256 3.58431 0.198917
87.3445 4.61157 0.272698
60.2671 5.48564 0.372141
42.7995 1.9234 0.0949702
47.6973 1.34021 0.0800152
130.556 7.38968 0.462412
35.7567 1.68555 0.112459
83.6981 4.15516 0.267805
136.289 5.91167 0.424941
82.2543 4.50956 0.312007
26.7234 1.50364 0.113063
98.9356 12.8158 0.901412
32.9949 2.36745 0.216673
69.1212 5.4827 0.455547
104.737 7.14871 0.489226
43.905 1.57571 0.124303
77.4185 3.53568 0.309342
57.0354 3.98786 0.263663
48.4975 5.80486 0.44272
47.1882 8.49993 0.721223
25.2143 1.57718 0.154259
60.2634 7.61996 0.6996
116.042 4.69559 0.361914
74.6793 3.69546 0.33251
54.1549 2.49189 0.205917
31.4872 2.13283 0.214604
48.7014 3.89192 0.35465
33.7758 3.26445 0.259991
17.1067 1.68681 0.180915
93.3256 9.70459 1.04738
216.836 14.8751 1.18459
108.5 10.2451 1.00964
39.3521 3.51287 0.390524
76.1859 5.89043 0.619901
39.3897 4.64042 0.473355
73.3542 5.78804 0.592089
54.0483 3.76793 0.405287
36.8673 1.85753 0.207586
107.397 7.34001 0.784474
31.8931 4.52829 0.486734
129.817 8.53864 0.965773
20.9283 2.34415 0.274977
60.0922 4.5951 0.61623
16.3616 4.31761 0.406425
17.3012 3.97583 0.457848
16.3769 0.975997 0.124113
15.1704 3.21796 0.342108
58.8858 10.2823 1.28509
33.599 6.66958 0.902648
13.1384 3.09458 0.529001
64.38 6.24912 0.660812
17.9117 2.31167 0.303387
21.0516 1.29933 0.193848
19.647 0.376656 0.0503771
29.1437 3.87359 0.54324
92.0751 8.15822 1.05767
13.0221 1.92057 0.210732
77.177 9.44268 1.25881
98.2013 14.0793 1.88547
46.3888 4.01808 0.583055
114.026 8.78627 1.24887
10.2786 2.47061 0.376227
37.0228 3.87186 0.45707
38.0791 4.43294 0.645583
25.3882 2.48913 0.316759
75.7998 10.1375 1.55869
28.2869 3.03356 0.511237
44.7843 2.98828 0.407002
29.003 2.4181 0.41572
23.9787 3.07972 0.60025
69.5367 7.3871 0.998635
11.6138 3.8347 0.557714
23.6479 4.44228 0.816291
26.1466 2.5342 0.447348
56.3287 10.6449 1.65779
24.8589 1.72058 0.272419
77.3913 12.8935 2.36159
66.5902 6.46983 0.887258
33.1563 2.26437 0.345536
16.0737 2.51512 0.466992
72.3566 7.81141 1.38636
19.2361 2.37707 0.398054
65.3041 13.0853 2.62225
21.0853 3.17485 0.529175
57.7066 6.09204 1.16054
50.18 8.66379 1.28684
48.0457 8.51342 1.54073
8.73913 2.85624 0.624894
23.7752 2.67093 0.514551
62.3616 9.84981 1.89251
20.1319 3.49566 0.676093
32.8613 9.27395 1.95817
57.5241 7.25994 1.35438
61.5013 6.40889 1.17206
52.2372 7.17482 1.38273
90.3296 14.43 3.08427
20.5637 2.33074 0.488102
6.91993 2.93449 0.589214
15.5888 1.91276 0.343925
17.8038 4.44003 1.08367
63.3509 9.93205 2.17617
34.3858 9.21482 1.75403
31.3454 4.82637 1.0872
16.899 4.06728 0.763783
12.1434 4.65305 1.16434
33.7234 5.8936 1.25679
16.4149 6.86802 1.72116
25.3578 7.551 1.7466
26.37 7.73745 2.15745
66.3881 6.80846 1.11155
51.2155 6.9493 1.61941
56.9006 9.91144 2.47219
25.1114 3.24751 0.604488
38.8635 4.92043 1.38166
35.4446 5.87082 1.12156
45.2179 10.5448 2.53011
18.2031 5.79148 1.52684
78.3857 13.2607 3.11376
69.2375 11.0139 2.83421
14.1131 3.37551 1.06299
6.40864 3.36912 1.11608
38.899 4.70382 1.20537
35.4674 7.36182 1.69652
19.1757 4.87367 1.38958
15.1767 3.09441 0.477433
21.6592 11.6398 3.27518
63.9702 10.8599 2.94906
17.3707 5.34143 1.29628
30.6397 3.74466 0.892637
26.1931 5.10956 1.28241
41.3619 7.70149 2.35821
12.0175 2.3384 0.448643
35.718 9.3051 2.49123
24.9098 5.36355 1.51403
16.9724 4.77554 1.92554
53.0293 13.3144 2.96472
29.9669 6.78407 1.98237
29.2436 10.238 3.17353
45.5546 6.29572 1.58837
11.165 1.26929 0.425462
38.3921 10.255 3.2313
28.5207 7.50962 1.89009
34.8504 6.15068 1.92091
6.08628 1.49334 0.599911
20.6904 4.94571 1.88061
10.9564 4.25696 1.07187
26.4719 8.35792 2.71762
12.7962 3.72944 1.14713
10.3741 3.19771 1.38298
33.8296 6.25321 1.55496
12.779 2.21976 0.839508
16.0137 2.83583 0.983556
16.3127 5.6734 1.7261
24.0642 8.78081 2.90667
53.7021 9.97198 2.96122
37.0269 10.5553 3.52269
14.6587 6.30117 2.69149
26.0955 8.44256 3.83991
50.4347 11.4519 3.36699
15.6731 7.60476 2.63129
16.3727 4.24194 2.62876
71.1479 18.175 4.95396
23.6789 10.0323 3.0448
17.9436 6.29334 2.34913
28.7667 5.29244 1.65394
13.2554 3.40142 1.2882
4.10774 3.26818 1.3091
24.785 9.9276 2.85407
4.55957 5.8151 2.48482
21.0494 8.90738 4.60274
33.9037 5.35978 0.871023
72.6853 22.3708 7.50195
23.1587 6.46037 2.76543
47.5079 12.1082 4.18668
34.403 12.3621 4.52205
34.8153 12.6863 4.93284
21.0657 10.3628 4.48368
30.37 8.64981 3.65134
13.7699 4.02228 1.13701
18.674 6.31777 2.88641
2.92818 3.63265 1.97553
18.9532 8.32171 2.72124
13.9418 5.05974 2.31181
14.9363 5.24165 1.97091
6.59702 0.930159 0.488638
21.2232 6.05308 2.23213
9.97998 4.60794 2.92155
35.6396 9.74279 3.75091
14.9227 3.90735 1.76384
50.7377 16.6276 6.27128
12.9256 6.64206 2.5862
8.12682 1.21794 0.301837
30.3621 12.4244 5.21068
8.39459 3.68391 1.89812
42.4597 13.2047 4.94605
23.1207 7.5849 3.93552
11.5207 6.05918 3.46163
7.11271 2.98423 1.53526
18.3544 6.6088 2.99398
18.3475 8.71568 3.68544
19.9442 4.6859 2.26101
9.37262 4.11731 1.99685
9.45376 4.63996 2.07202
15.3749 7.44336 3.348
9.05229 4.38931 1.81191
12.71 6.97142 2.10122
21.1544 11.6336 5.30031
6.48936 7.0465 3.77295
11.2002 1.63658 0.563257
15.3672 4.91007 2.43355
8.24247 2.71559 1.56047
13.9408 5.71014 2.20495
9.94059 5.35088 2.87219
10.2137 5.24774 3.01042
20.8182 5.28911 2.4772
16.0571 4.31709 1.91613
12.657 6.86681 3.71981
7.9847 1.77955 0.930717
26.5444 10.4962 4.27769
8.99553 7.52838 4.29091
9.79019 4.12985 1.6556
27.6717 8.4052 4.17972
21.8166 11.9905 5.86744
8.70066 5.65876 2.85873
15.5022 8.6497 4.68191
12.3289 7.2234 4.06265
11.7774 3.94682 1.865
26.1471 8.65154 5.06287
16.2951 6.26958 3.65635
9.30793 4.54871 2.09142
7.63342 7.61657 4.03485
6.74773 4.23814 2.81465
20.985 10.4695 5.35975
6.65147 3.48899 2.41287
32.3645 10.9809 5.85291
11.7474 7.96111 3.53523
14.2081 11.725 6.03779
9.98914 7.40108 4.17408
8.07583 3.33195 2.27623
4.576 0.71753 0.433177
8.32069 3.6346 1.71453
5.20828 4.14302 2.769
20.0127 6.56762 4.16445
6.8901 5.19791 2.48889
9.98773 5.92406 2.81557
8.46282 5.67699 3.48029
11.3229 4.65433 2.63898
4.20675 2.45562 2.01096
4.11837 3.98348 2.70593
15.9833 5.16046 2.75656
7.06591 3.83072 2.1781
3.13511 1.24442 0.585152
7.29337 6.91554 4.54261
10.7188 4.60118 2.98491
14.8339 4.70509 2.89608
11.9473 11.1476 6.43607
19.4851 7.51445 4.19246
3.66168 2.16074 1.02848
13.5325 5.66975 3.67254
5.96348 8.2626 5.03459
7.06908 6.03894 4.59724
10.7361 3.69047 2.27723
13.9301 6.88777 4.77682
8.08746 4.36648 2.72001
6.01815 7.96273 6.37299
10.6935 4.12437 3.20555
4.01371 1.59725 1.7185
20.907 8.56294 3.89138
11.6337 6.79617 4.44077
15.3506 6.92671 4.53566
12.0943 4.24642 3.39776
9.93331 3.09775 1.2533
4.46991 3.85838 3.6597
25.5495 12.4442 6.06425
13.4906 8.67907 4.41924
16.5384 14.7801 11.5244
17.252 8.23078 5.09038
4.10481 1.54205 1.4801
2.96783 4.45847 2.48085
4.2234 3.75013 3.42691
9.70572 5.49227 4.73989
22.3175 9.64288 5.78105
10.9228 4.4763 2.348
11.4392 8.11633 6.2983
12.8518 6.81392 4.21564
16.7699 15.6578 11.6701
4.78088 1.03163 0.629465
9.50374 4.06869 3.75541
11.9014 7.80268 5.91025
20.1336 13.1895 9.99414
8.0536 4.12713 2.59857
16.5861 10.7684 6.63908
2.42256 1.25881 1.00148
2.12538 1.14505 1.33609
12.5068 10.0687 7.4427
10.0882 8.28066 6.30814
15.8628 5.9375 4.44028
10.4934 6.83483 4.01064
8.58636 7.2207 5.66505
4.86717 2.90208 2.36306
11.6759 5.70532 4.74191
11.5919 5.5087 4.44886
11.8031 6.06015 3.16904
5.95446 5.32314 3.95822
2.1105 1.7379 2.74454
9.25709 6.56513 4.7795
12.7386 12.6061 10.1449
18.1253 8.2229 6.54581
5.70879 4.10281 2.87144
3.27339 5.26814 3.39842
4.71656 6.26599 5.71453
8.14594 4.32148 4.29509
5.62543 3.18874 2.18372
20.3056 11.5099 8.05836
3.49779 8.98472 8.68664
15.8423 8.04795 5.54496
7.72215 5.38212 6.27652
11.3514 5.96585 3.71926
14.0275 7.36829 4.9693
2.33505 1.73076 1.79971
6.70782 3.75195 3.58846
1.71699 2.31848 3.28631
6.80567 1.9604 1.78198
8.90841 5.05278 2.76381
9.76735 4.69722 3.52254
13.0589 11.8436 11.2204
6.83639 3.0602 1.80145
9.51201 7.18183 6.91844
10.6903 4.81578 2.73795
8.45827 5.00817 5.5714
3.8927 2.82435 2.20689
6.46068 5.00707 5.56808
8.16783 6.91619 4.52033
9.56303 13.5623 14.142
13.0188 6.82262 3.82534
10.9479 6.83083 5.0576
6.7841 7.09218 6.95731
11.4882 11.5638 11.0796
7.35934 3.07722 1.60713
5.01404 2.53229 2.2396
13.3336 15.1024 12.6843
3.78628 3.91901 5.1927
11.1552 7.68353 7.49885
1.87022 1.51112 1.61048
4.72015 4.69683 5.00731
12.2497 5.84218 4.22033
3.11774 2.61932 1.99372
2.49912 3.15423 3.40861
7.90494 4.46933 4.00933
1.74707 1.26379 1.43913
3.79577 2.76765 4.15277
6.18484 5.9794 7.71641
9.79295 8.76446 7.20976
14.2775 7.58624 6.14788
5.40802 1.08806 0.442315
7.84498 2.50561 1.62535
8.24158 3.79563 3.25587
10.5066 6.96491 6.37111
3.95732 3.284 2.89181
8.08976 6.97161 6.23339
3.52883 2.64233 2.82231
9.00138 10.0029 11.8993
3.91026 2.77235 5.19446
14.5247 9.78989 7.68234
6.65187 4.32554 4.5796
9.50591 5.52944 3.62484
9.15661 7.97014 8.04801
2.91485 5.91479 8.74293
7.68452 5.59161 5.41447
4.93952 4.69431 3.73205
4.40681 2.58578 2.2925
3.53396 4.37309 5.88223
3.04756 2.93005 3.20732
14.1701 8.54727 7.34763
4.0383 2.35225 3.15395
3.27456 3.85619 3.32864
2.12091 1.60735 3.79526
17.1848 16.5328 14.3884
4.75364 2.71693 1.63703
4.52614 4.00022 4.2931
0.763145 0.661796 1.53949
3.48679 1.66059 1.41201
5.37991 4.04871 4.56654
1.972 1.82879 1.53383
2.94852 4.96709 5.39555
5.42046 2.44003 2.28647
1.66207 0.99307 1.76774
2.1598 1.90924 2.48643
1.07094 2.09684 3.64788
8.18298 5.2799 2.99344
4.29124 2.21653 2.76042
8.65043 8.96113 10.361
5.50411 6.1862 5.79296
1.34214 2.01391 3.46407
12.9441 12.9518 15.5212
9.48224 14.1051 12.757
6.5697 6.57088 7.2304
5.45891 4.54655 5.60482
2.63283 3.95427 4.49186
4.33738 3.36826 4.12589
8.12137 6.70774 7.05753
0.867172 2.57554 6.01334
17.8105 11.4543 11.2195
3.06251 3.02867 2.58594
7.07765 8.31238 9.00402
1.67672 5.44733 7.40828
9.88797 7.74019 8.87369
2.43187 4.67736 6.41746
5.14131 3.31266 3.66149
8.30798 5.02468 4.2674
3.80109 2.48218 2.99774
4.35318 2.68523 2.94029
5.32966 9.03406 14.2474
8.54896 5.67648 4.4146
6.0222 5.10929 6.08179
4.89356 2.33344 2.63593
2.32489 5.3732 5.78347
6.12557 5.16399 5.6177
1.60319 1.98509 3.97082
6.4406 5.12036 6.36206
7.92308 6.05754 5.1404
6.00784 6.34063 9.56372
3.33526 5.73924 5.02662
5.75705 4.59148 5.44726
1.10487 3.53668 4.60603
2.46323 3.81602 6.65767
7.92437 5.05811 7.14254
9.79129 13.4916 17.7383
6.23748 2.92668 3.08783
9.1652 7.4056 8.68506
11.3569 8.03461 7.91575
6.16881 7.50909 12.1147
7.18932 4.58542 3.12153
9.56306 8.95232 11.2456
5.84219 6.75328 7.88872
3.99276 8.30887 12.5118
7.07271 8.19029 12.0089
6.96602 8.76402 8.03708
10.5628 16.0812 19.8262
7.48144 6.13671 9.8684
10.0558 8.88416 9.4634
3.54442 8.01832 9.31697
5.99591 6.4177 7.97198
5.51288 4.59303 8.94551
3.85704 6.04114 7.97553
6.91999 5.84645 6.34485
7.89411 6.6557 7.06875
1.99451 2.11021 5.08003
5.66668 4.98383 4.42157
3.4743 3.32719 5.90215
4.71079 5.93997 6.6043
3.34914 2.55864 3.62514
0.81603 1.60528 2.44512
1.75476 2.69586 2.78854
3.32533 2.12802 2.83541
3.0519 3.76457 3.94669
3.50329 3.30074 5.48228
6.46254 5.52138 8.09563
6.06657 6.50137 6.26923
2.86298 4.88271 8.44153
3.45323 3.46104 6.16479
1.86286 3.60436 5.57232
4.77339 5.78269 8.86961
3.14789 6.94631 11.295
5.64622 6.02805 6.73893
6.87322 7.90227 9.31932
1.99054 4.59675 8.37863
4.3188 3.19628 2.79507
2.51996 2.59295 3.08394
2.60391 2.86377 3.20623
0.855266 2.64785 5.72427
5.09535 2.78354 4.59687
2.88035 1.90222 2.77909
6.09912 7.36598 9.821
3.4738 3.26809 4.19764
4.86033 8.4261 14.0555
7.23882 5.73282 8.89093
7.48695 3.96656 2.78548
5.02013 3.16437 4.0173
6.69268 5.45466 4.97884
5.26247 9.04603 19.5289
8.33054 8.89006 11.5666
1.71822 4.44731 4.77967
2.57812 4.11788 7.67394
3.18869 4.04838 6.25236
6.37977 7.37657 7.83274
0.647763 2.14543 4.71137
4.07422 2.2304 3.32036
4.79486 5.56396 7.54345
2.55747 2.90426 3.88582
5.22445 4.93048 8.58687
1.75481 3.9981 5.20081
4.82079 5.98772 11.2375
1.98471 2.50877 4.3544
5.47999 5.2552 7.25967
2.39803 5.25603 8.19446
4.65929 6.86704 10.3261
3.67368 5.1786 6.34035
2.13453 5.97204 7.03105
3.41138 6.94605 11.8087
4.61024 1.44064 0.795524
5.52123 7.1344 11.5158
2.24506 5.55192 12.4055
7.89705 7.86286 9.17652
1.29626 1.66346 2.74613
4.05252 3.6332 5.98164
1.32731 1.42856 2.34974
2.54548 2.96611 8.11965
5.26794 8.09824 8.4307
0.551646 2.67356 7.19398
4.62686 6.96255 10.1251
5.30829 5.60751 8.8576
3.87211 8.09289 14.5894
3.91004 2.21391 5.09686
3.65552 3.03387 3.31307
1.63931 2.84489 6.40511
3.87608 1.73289 1.12892
2.55204 2.29043 5.16965
4.01862 4.5521 4.53404
0.908643 5.86572 11.4223
4.4674 3.72828 4.71781
3.01735 2.3431 5.57199
4.07859 2.73262 3.19123
3.90076 6.35228 12.4614
6.67406 3.42483 3.76958
7.0663 8.0597 11.9168
1.79498 1.72843 5.02073
8.788 11.4084 14.5123
4.0282 3.28958 4.08414
1.77807 3.56609 6.98147
3.40625 6.02425 8.6592
1.72271 2.23316 4.35629
0.668956 0.404546 1.64235
3.89509 4.9464 11.2129
2.12678 5.59768 9.28602
2.67122 2.87846 4.86996
4.39884 7.75645 16.0413
2.72989 1.04301 4.28093
6.6575 5.37513 4.1702
3.44773 4.21855 6.13251
4.28654 4.34862 7.3199
3.03547 5.19252 8.46367
5.55738 7.04527 9.76104
2.84037 7.55804 14.2766
4.77022 2.69874 3.39874
1.03568 2.50422 3.67629
1.69118 2.84908 5.02317
1.84756 2.17856 4.75169
2.76752 3.89684 11.5579
5.81862 4.4639 4.94726
2.23981 2.86209 7.47119
3.20511 2.78637 4.66831
7.14275 6.93145 7.71966
4.94359 6.78308 9.33856
5.98572 7.03469 9.96847
2.37506 4.59803 13.6832
5.23389 5.12219 7.28819
1.34473 1.30943 4.96191
2.69728 3.02089 7.33351
3.23818 5.30192 6.68415
1.75979 3.53312 3.57721
2.47091 4.80844 9.33703
3.6921 5.51775 13.1491
2.25705 2.26828 6.22535
3.55002 6.33875 12.0802
1.95324 4.85509 6.27702
1.94861 3.00568 4.13071
1.70988 6.11847 7.73355
2.47393 6.08414 14.6344
3.66744 3.77222 4.38418
0.884934 1.45839 3.70088
2.392 6.49102 13.2977
4.0583 3.8854 9.47882
4.30073 3.75645 6.48719
5.15505 4.50104 5.6894
2.49919 1.83124 3.05896
1.61596 1.84772 4.31609
5.1179 8.04539 15.5896
5.62399 6.59253 12.6452
2.88759 5.69619 9.39764
4.50617 2.76035 3.37124
4.82613 7.80691 12.3423
1.92214 1.45882 5.69928
6.00795 10.5542 19.6412
6.56795 9.85043 19.165
1.27256 1.6933 2.45819
1.95493 3.21039 6.53613
5.78457 11.4728 20.5376
1.56639 1.10658 4.54525
1.39463 3.27859 8.48334
3.24872 6.11196 12.3245
3.94123 6.90928 7.66216
2.18563 6.97796 18.7494
3.17278 3.12082 7.56779
1.77402 3.90316 11.1981
5.27213 4.41393 7.97154
3.0013 3.97899 4.50123
1.1072 5.43568 17.6783
5.71329 3.71551 7.42418
2.3112 1.33833 6.83849
3.73853 4.21161 4.4242
4.75828 5.61072 6.59517
3.57034 5.15711 7.17404
1.71204 2.65787 6.15609
2.03452 4.80969 8.40211
2.43242 2.50405 8.47431
3.29233 6.5447 9.53127
1.51998 0.679465 6.1285
6.58836 9.03439 11.5365
3.26052 4.90077 9.80169
2.5279 2.7584 4.25641
1.01297 1.39942 3.89197
2.70983 7.71052 15.3187
2.85589 3.35248 10.4239
2.8403 9.105 18.9124
4.04555 1.80829 5.02976
6.55628 11.5431 21.9798
3.13121 4.70146 9.72872
3.4633 4.24435 3.88712
2.02882 5.36409 12.8697
4.11534 8.08305 13.3864
1.65127 1.55094 5.5409
1.98581 3.13557 8.47626
1.68894 3.63835 1.42851
2.25435 7.34008 10.9157
1.28517 8.22662 20.9686
2.90881 3.4867 7.6913
5.46008 9.25296 23.1452
1.97349 3.16499 3.46907
1.00235 4.11993 10.3715
1.05932 2.19727 10.3993
4.05789 4.48578 5.99173
2.21357 1.88399 1.45127
2.06604 5.68963 15.7142
1.09297 0.260202 4.74457
3.45952 4.31292 7.67442
1.30044 2.3513 10.2479
1.81117 3.27031 3.38532
1.28726 1.89451 4.60275
2.27545 7.34902 14.3916
3.14125 4.7647 6.61956
1.29333 2.00652 8.39539
3.3013 7.1381 17.2775
2.41445 6.1319 7.18594
0.555666 3.0204 6.26868
1.31204 1.92395 2.6838
0.552603 1.08427 4.91219
2.49351 2.01379 4.38013
1.2015 1.71381 2.43097
1.47582 3.09818 6.63492
2.05898 2.77315 5.82028
1.15638 1.43643 1.24743
0.690477 3.3966 6.62983
2.43478 7.48555 14.3283
2.19454 4.65775 9.01495
1.09315 1.61741 7.14078
3.14878 2.81254 5.0048
1.41054 1.05546 4.61151
2.5061 2.93595 6.66647
1.26316 5.73898 15.7892
3.4141 7.01753 9.09429
1.93743 7.13025 18.4199
2.105 1.15221 5.6081
3.02746 4.24123 12.5434
5.63184 6.00827 8.1812
2.8748 5.47574 14.0653
3.50728 3.23203 5.60501
1.56947 2.00659 3.99686
0.715283 4.01169 13.8552
2.30793 3.64368 10.8292
3.26919 2.62204 6.36987
1.64565 1.18921 5.67538
3.5841 3.89032 4.76572
2.14662 3.62581 4.89275
1.00829 2.58367 5.32443
3.79723 6.35454 12.6903
1.25647 2.41173 7.98207
1.16182 1.38801 3.15211
1.44312 3.15105 6.74913
2.66764 7.33195 19.1674
2.89046 4.72951 5.25582
1.57324 4.7437 6.53351
0.799235 7.51956 21.521
1.88609 3.53959 13.1053
2.30965 1.03752 8.98348
4.70386 4.35 4.58136
1.84352 2.9806 10.6217
2.08618 2.16102 6.7282
1.93668 3.88306 4.67284
2.83641 4.19112 7.74649
0.342954 2.05823 5.13429
0.62539 1.21846 9.37848
5.39512 4.90061 6.02685
1.41659 3.07717 7.51554
1.11654 3.37533 10.3765
4.06937 5.17762 8.20093
1.10456 2.59708 10.2937
0.931465 3.08976 3.82044
1.94031 3.58125 6.59616
1.01158 5.4657 14.9085
2.5451 0.828079 2.43988
1.74886 2.06268 7.62738
1.6218 5.67156 16.0983
3.40484 2.92841 10.0623
2.41343 3.24393 5.44743
2.64945 4.78668 7.61784
0.35823 1.74014 10.1133
2.19567 2.18694 3.44797
1.6228 3.37514 6.96511
1.79779 9.74945 16.3843
0.715045 4.64868 13.8018
1.727 7.51583 21.6438
2.44305 2.18266 11.8136
3.8406 9.46742 23.0887
4.54452 2.57789 5.52171
2.14081 1.19243 4.39269
3.42806 7.31805 20.9132
4.41377 5.1539 5.55924
1.2216 2.56558 10.8768
1.6567 5.25124 9.55359
3.25771 6.42693 17.7862
2.72644 3.1195 4.89518
1.78787 8.04959 21.2766
4.49709 5.68744 8.34736
0.254937 1.41928 8.62626
1.70295 3.8323 5.9028
1.27954 6.74706 21.4083
3.07356 4.24564 11.2661
2.5822 1.71997 11.0646
3.80185 5.68209 6.72127
1.17114 3.0245 13.074
4.37812 4.54745 6.3336
3.29705 4.65716 7.52906
3.05909 5.49041 14.493
1.49279 4.15847 11.1833
3.09693 3.97597 7.08668
1.2243 2.95458 8.62419
1.96126 6.59023 19.7637
2.90926 5.58347 14.5246
3.18421 4.90222 7.45165
2.08219 7.83939 14.0655
1.30699 5.76251 17.4521
2.30365 3.15447 11.425
2.45786 3.76658 8.0395
2.14367 3.82807 7.78936
3.15927 8.95085 26.1348
2.00557 1.24475 3.76705
0.748671 3.03048 6.40243
1.12022 4.70567 19.0667
5.32334 4.51113 3.18058
1.87032 4.46898 11.9947
3.67046 4.89564 8.5615
1.40696 5.28462 14.0225
1.69939 4.78871 11.6366
2.35635 6.58879 25.8573
4.23104 7.38744 15.7935
1.63981 1.90722 6.79046
2.35582 6.68958 20.6574
2.60993 4.23748 14.7127
2.38731 4.71659 15.0545
1.58861 3.99925 2.64342
1.2891 3.97397 12.9375
2.17023 6.01096 15.5118
1.74887 2.46611 9.7447
1.38755 1.22295 1.90232
0.630205 4.49833 9.84176
0.91462 4.45431 15.1314
3.06763 8.62716 34.6968
6.62283 7.47594 18.4651
3.24521 5.02704 13.6949
2.66726 2.65315 1.13573
1.19062 1.80547 4.78128
2.14623 4.51788 9.1458
2.25022 2.3531 4.44353
1.57785 2.82697 7.62559
0.234497 3.27898 16.381
2.58044 2.12692 5.24871
2.32028 6.3012 11.1301
2.86611 5.30051 8.21211
1.42769 3.59595 16.2657
1.28245 1.54765 10.9905
3.29917 8.68183 22.5189
3.83207 7.37974 9.89543
0.452031 1.96569 12.5591
3.9897 5.93437 5.72877
1.51235 3.78599 7.28803
1.16771 4.28407 18.8557
3.06945 8.40511 24.1088
2.51048 4.7543 8.45275
0.727545 3.15076 21.277
3.64857 6.92874 13.0156
1.70145 2.16718 5.86058
0.914783 1.34133 2.41276
0.938381 4.26383 11.7289
1.86544 3.1865 8.40142
1.01781 1.69849 7.08369
2.43003 4.99941 13.1478
1.00399 2.15008 4.74197
1.22065 4.09054 8.26045
2.49856 4.928 13.6061
2.25776 2.36671 6.19836
0.762625 2.92753 15.805
1.77282 3.36352 7.88864
1.44248 2.8835 7.81316
2.05456 2.26918 5.19554
2.57185 8.43094 18.1831
1.84147 4.05399 14.406
3.13182 5.78398 11.1745
1.12964 3.50109 17.4283
2.83663 6.71875 8.13603
1.14189 2.87085 6.08488
0.57361 2.70651 9.64632
1.67283 3.44798 11.4105
0.826117 2.31323 12.9557
3.46665 5.56685 9.10887
0.649758 1.27089 8.37386
0.749534 2.32263 3.21171
0.712952 3.6001 13.2706
1.33646 1.01045 10.5869
4.58091 6.17543 9.78681
1.13635 4.48436 12.8211
0.61437 2.59882 20.0204
4.53122 6.8178 7.99962
1.12121 1.86793 7.25486
1.39324 4.14376 9.23286
0.948527 0.946972 3.47802
0.861346 2.10854 9.31616
0.750236 2.45576 8.68781
1.76646 5.46821 14.6816
1.33546 1.65046 1.08871
1.00896 5.6952 23.0941
1.16757 1.49884 4.5584
1.74573 6.30822 26.6839
2.58436 2.86398 3.24225
2.48142 6.49844 8.62013
0.260163 3.28573 17.4394
1.83367 5.44359 17.2
1.56271 1.6358 5.66168
1.43575 4.27124 7.23243
1.26626 1.81811 7.77055
0.703486 2.36402 14.5941
1.30012 7.00701 10.2957
1.26276 3.08054 13.2624
2.25545 4.74112 10.6333
1.5287 3.06599 6.72772
1.43137 6.80409 26.9332
1.69599 3.1827 5.09212
1.02687 2.53713 14.0683
1.46161 2.64852 15.3281
3.7996 6.12709 12.7229
2.31525 6.94769 27.9562
3.3911 6.5479 17.3433
0.543874 2.57101 12.9105
2.40569 7.49023 16.1903
0.897443 0.87305 8.24264
1.78397 9.69405 17.6506
1.1189 2.47064 16.1486
3.35852 4.3262 7.87158
0.885543 1.4835 6.39681
1.13008 3.7952 13.8234
1.15134 7.0304 12.0871
1.07219 6.42352 13.2343
0.934075 3.62736 8.41472
1.00237 3.50586 9.64199
1.04064 2.1862 9.35436
1.6322 2.69067 7.87799
1.02065 1.85846 11.9163
2.85217 2.72691 10.6328
1.55964 6.1192 10.5139
0.670638 1.50127 5.02598
0.810579 1.00339 8.297
2.25456 3.74806 9.01171
2.10582 1.82792 1.17215
1.68073 6.9099 23.8419
0.67287 1.85698 15.6817
2.05084 5.57017 19.658
3.10353 2.4167 5.41633
1.26423 3.03455 8.76663
3.11691 6.3945 8.04621
0.957421 7.93487 22.3249
0.952339 4.32006 17.1099
2.02008 0.78837 1.3886
0.77788 3.74945 19.2795
2.17042 1.28873 4.84859
1.32178 2.11246 3.64477
0.869817 2.10917 12.5252
1.86736 4.22196 9.08629
0.861799 0.972021 4.99799
0.688145 2.61028 10.5026
0.919292 4.57829 10.1477
1.28127 1.75988 10.3649
2.17079 3.6023 8.33953
1.11492 2.85551 3.44161
0.699536 5.29058 18.8874
2.32043 3.65031 11.3631
1.52178 0.688486 7.23673
2.44572 4.39717 12.1468
1.16868 3.44338 5.78256
0.886819 2.87811 22.0764
3.39235 5.25019 6.2362
0.609318 2.31627 11.9526
1.42567 4.70545 18.4144
1.36652 3.14248 16.7863
1.65853 4.25338 8.23534
1.36521 5.01933 11.014
1.02785 3.77618 12.5753
1.85013 5.11954 33.0611
4.94874 11.5551 16.0086
2.07681 4.84801 17.0875
1.81514 1.34151 5.8427
0.759357 1.62623 4.66212
1.41563 3.36916 11.3259
1.37849 2.91667 11.2545
1.16816 5.24773 15.7593
1.76969 2.2172 14.4933
1.94629 2.62419 5.6263
1.31138 2.39458 6.46537
1.10754 1.542 9.02321
1.41269 2.20431 4.82218
2.25355 7.13686 14.439
0.650621 3.44524 14.4801
2.10357 5.61761 22.5964
1.55985 3.04475 19.6267
3.2274 4.7956 14.7596
3.22728 5.16922 7.5592
1.29106 5.23366 14.0778
0.477163 2.04411 6.92012
0.916853 2.83106 15.4875
2.24755 4.53969 10.8062
1.22812 1.96688 11.0119
2.5128 5.43092 10.9877
1.38523 2.10894 8.29633
1.53908 3.72148 6.25064
1.68096 8.86733 25.4249
1.10663 1.82287 8.80184
1.41277 0.598744 3.68685
0.827114 1.86888 5.90835
0.83397 0.685401 7.66669
1.06105 4.18436 17.9081
2.461 3.37083 17.845
2.91652 7.84748 19.3542
1.9113 3.8653 22.3242
3.07345 6.84358 9.58317
0.998477 5.77614 32.1131
4.60136 9.07146 18.9144
1.24791 2.23849 4.94445
0.362317 1.6457 6.10395
0.563767 0.833661 5.14811
0.490758 2.97731 10.8101
1.16432 2.63158 10.2963
1.47638 5.42684 12.9832
0.696664 1.15127 14.6964
1.79134 4.73883 9.20859
1.32172 8.21976 26.8398
2.84291 1.49287 4.19234
1.46604 2.43443 9.29178
1.81132 2.75439 12.3487
1.8241 6.99525 21.4281
1.72882 2.72718 25.3631
2.52628 4.89433 5.86832
1.59562 1.82293 5.14959
1.09128 5.09451 34.0285
4.58903 8.83049 14.0342
0.917964 1.35752 20.1078
3.15494 13.004 26.9788
2.42415 3.19208 5.07516
0.658819 1.75722 8.24149
0.862978 2.00073 11.5286
1.85715 2.96585 7.62052
1.07483 3.46062 13.0274
0.706065 2.12208 4.7946
0.610641 1.38775 8.25992
0.848373 3.74245 10.5042
0.34322 2.50413 8.47576
0.873382 2.82597 14.3177
1.45657 1.79052 4.10579
0.46609 3.30987 14.694
1.21061 6.45306 21.372
3.05285 5.98785 8.92956
1.77833 6.22252 23.6977
1.83469 2.97173 2.34034
0.502743 3.02061 9.45614
0.862945 6.59494 44.6457
4.55695 8.61782 8.24419
1.29995 5.88723 17.4434
1.14721 1.70851 6.71629
1.08249 2.02395 5.0911
0.934808 2.55148 8.29571
0.506086 1.6364 9.41243
0.56853 1.77768 9.39094
0.671022 2.16946 3.49254
0.691244 2.26212 8.60043
1.15972 2.84176 11.3133
1.57022 2.33502 14.1564
2.31948 2.50501 4.99602
1.50633 2.58338 15.4944
1.89495 4.10779 6.75774
2.09881 6.6757 25.2624
2.06075 3.04212 4.4354
0.909071 5.72888 13.2404
0.657428 8.07848 18.0326
1.33018 4.56238 26.3527
2.70778 2.88627 17.7992
1.7869 2.14977 15.1838
2.00789 1.63636 2.98471
1.86703 6.97422 20.6528
1.30354 3.65108 24.0885
2.21576 7.29805 25.615
1.49778 4.31844 5.9401
0.691711 2.16906 13.6868
2.25501 4.40525 9.61924
0.299801 1.04885 9.92706
1.25741 3.04951 6.21704
0.741536 2.0766 7.19316
1.53088 5.80581 35.8852
2.40856 6.05863 9.85741
2.29969 4.82716 8.34523
0.343225 4.09048 8.11711
1.46284 6.50258 20.3406
1.1201 3.24752 30.7014
3.33856 2.70403 9.99382
1.31284 2.07399 9.6377
1.97373 4.09215 11.7586
1.11061 6.05215 17.3602
1.11776 6.63264 15.9465
1.40988 1.42364 14.0798
1.49071 2.98781 12.6535
2.04181 4.58492 16.1912
1.819 4.38389 15.4864
1.09957 1.40136 4.46205
1.52636 4.69227 15.3214
0.91309 3.90451 18.1182
2.29307 4.46034 14.7372
1.70226 6.59173 26.9626
1.09529 4.18867 23.5369
1.53612 5.46763 18.9613
1.48759 3.69265 9.07336
0.427829 5.05712 20.0355
2.17342 5.58848 22.2668
1.29259 3.76066 8.13936
0.983948 3.01276 8.09563
0.667694 2.95185 10.0216
1.23857 6.67311 27.542
2.37421 10.0064 24.7892
1.08525 10.5113 41.1216
3.79673 4.28506 22.1307
2.41921 1.05689 12.0519
2.15515 4.2098 17.6556
3.28326 8.11973 8.11439
0.671342 2.04127 6.73534
0.607126 5.57389 17.4826
0.983095 0.581035 6.99949
0.359633 3.47931 19.0766
2.53307 2.73284 22.5901
3.38871 10.7206 25.8713
1.56582 3.29521 6.94982
1.05839 1.85039 4.43761
0.542358 0.780264 4.73845
1.55744 8.46307 32.6787
1.47235 5.4189 27.7511
1.91159 2.25497 6.00006
1.15301 2.39185 21.687
1.61104 6.79808 8.19737
0.63487 1.22359 5.38
0.568315 1.5028 9.43875
0.831302 3.5598 23.7755
2.56203 3.50165 4.2367
0.922498 3.06694 6.81662
1.28239 2.931 3.82719
0.263568 1.48665 6.0249
0.41193 4.88047 25.0634
2.20573 1.94553 9.66363
1.55193 8.05273 18.4794
0.506718 3.92063 6.32178
0.231603 3.86853 28.1377
1.68476 4.22232 10.3496
1.10506 3.63387 13.4782
1.50976 6.55429 26.2099
1.41307 0.423331 18.181
2.13841 3.09139 19.2946
1.89418 4.69289 43.363
4.32394 10.8091 11.8941
0.569577 1.33881 10.3277
1.44817 3.90063 9.58997
1.21354 2.76064 15.2671
0.657297 1.62472 16.1364
2.6626 9.44351 13.833
0.559476 0.567237 3.9321
0.54513 1.84296 8.69349
0.26992 2.95957 18.3286
1.21443 7.25116 12.0479
1.32483 1.19514 5.51982
0.398325 1.51946 6.20477
0.365457 2.39553 6.06555
0.824071 1.59902 8.20417
0.744886 2.57553 5.82471
0.945423 2.32149 4.88256
0.670758 3.55419 15.0228
0.80938 3.433 4.64816
0.511119 1.69311 21.8848
1.74618 6.37621 6.20198
0.54851 4.62694 20.6531
1.62228 2.57187 10.3655
1.36354 2.85323 13.455
1.61293 2.90902 8.5064
1.33353 5.55581 24.3283
1.86633 1.63064 5.87829
0.719329 3.74842 12.6587
0.626201 1.63634 10.4852
1.16635 5.75967 21.214
1.59894 3.5436 14.1849
1.27009 6.01942 36.5216
4.22411 3.90299 9.03155
1.59543 4.48599 16.0392
1.18126 2.99196 12.0804
0.732678 0.936977 3.17408
0.622234 2.16325 13.1845
1.80623 3.36575 4.2489
0.968289 3.83212 7.89929
0.497779 2.31003 18.6401
1.51262 2.37921 33.7652
4.09152 11.3196 25.3114
2.45643 4.53849 12.6833
1.52933 6.51124 16.0468
1.20967 4.11023 8.79683
0.908488 2.59914 9.80282
0.679249 3.09888 5.08773
0.726693 3.28523 13.7157
0.864076 2.83466 27.8878
1.96833 7.31998 33.432
1.36912 4.56784 4.16131
0.427064 1.18508 7.64117
1.18525 6.22268 16.9613
0.801483 1.25437 18.8549
2.48369 4.78158 25.0104
0.816373 4.3202 6.11569
1.17278 6.67058 64.1406
4.25388 9.48166 22.643
1.55292 7.14106 19.1832
2.42639 5.20759 10.1602
0.851894 6.54836 13.2542
1.25723 3.39551 5.53785
0.196943 3.83624 14.3248
0.906732 0.349172 12.8518
1.335 1.97348 3.30925
0.206647 1.93425 9.2841
0.78613 3.24696 14.1277
1.74777 6.36281 24.0702
2.13786 3.55506 12.7319
1.06688 3.57859 10.5012
0.862807 2.35942 24.7193
3.0154 3.22328 12.4719
1.19665 4.42814 13.6645
1.66256 1.59592 3.2751
0.376326 0.922026 13.6505
1.5931 8.38019 17.3591
1.43591 1.11634 3.86726
0.738743 4.225 24.5062
1.10973 3.42916 13.6362
1.6102 5.87801 24.8356
2.34237 4.75157 5.95315
0.510258 1.25497 18.0291
2.4543 3.35731 9.77819
1.2454 4.4021 6.8257
0.568032 3.02555 12.5761
0.533733 2.69021 19.6306
1.05949 2.98121 17.5854
1.16748 2.58441 7.64153
0.719783 6.98834 27.8362
2.21113 4.79165 8.04881
0.603028 2.6922 11.8643
1.85813 3.21856 15.1187
0.681388 7.09507 28.0273
1.91231 1.92556 13.9316
1.73665 2.29624 7.13398
1.0829 2.94485 7.18131
0.35693 6.44713 11.2244
1.23084 1.7115 12.4675
1.33116 0.98303 23.3739
2.94681 6.04275 7.14216
0.621473 0.717838 0.710592
0.288852 0.68044 4.68482
0.643376 3.24216 10.0415
0.446866 0.830599 5.92491
0.839787 3.03829 7.07002
0.872582 0.383173 5.19941
0.600438 0.586858 7.65436
0.913797 5.51703 23.5849
1.84301 4.38335 16.1862
2.20849 3.47464 6.78085
0.644154 3.00807 17.3814
1.05256 2.19258 8.24483
0.934628 4.29231 16.1002
1.4688 3.00697 10.4879
1.24509 2.62729 5.42603
0.749522 2.8684 6.1623
0.111475 3.34689 15.4683
1.10285 1.83445 8.58758
1.34939 5.61732 29.3393
1.77576 2.41074 22.3952
1.93072 6.60269 13.8469
0.688203 4.04176 16.0436
0.952752 4.14455 4.36321
0.585794 0.961268 7.86238
0.380678 0.875517 12.2341
1.03743 7.37873 16.1231
1.7657 0.751916 4.67148
0.995053 1.47177 4.69207
1.01622 6.82526 37.1676
2.39577 4.65774 19.0715
2.4283 3.7359 15.2271
1.88466 4.89861 13.2541
1.36601 10.2795 31.6097
1.73559 1.92547 14.3876
1.07306 5.22157 8.95156
0.219562 2.13166 14.7804
0.994472 4.78067 20.8685
1.97708 4.40967 14.5343
0.698573 0.407509 6.50646
0.962698 2.70166 27.3476
2.33507 4.53562 10.0767
0.771546 3.37084 6.92826
1.05244 3.42449 7.10338
0.179354 1.14155 19.2152
1.01073 6.42186 14.9151
0.775695 5.32481 13.8145
0.90527 1.63081 18.9814
1.29903 3.27418 9.62804
0.866923 2.6758 9.99608
0.43346 3.96013 11.3466
0.728745 5.22775 20.1783
1.67056 0.683849 9.69263
0.588761 5.13904 23.9925
1.73613 2.76562 10.7751
0.660851 4.29609 12.6123
1.183 2.78314 14.3988
1.68231 4.43411 19.244
1.89833 1.63171 16.4811
1.80969 5.71763 16.4466
0.68113 2.90681 22.3639
1.66284 5.93069 13.3262
1.34725 3.09169 12.5087
0.574906 2.06698 7.74648
0.780516 0.956905 9.48024
0.914301 4.66059 16.0917
0.619692 4.2602 12.4152
0.728337 4.54781 16.1072
0.957151 2.64674 8.38997
1.30762 2.0828 7.28606
0.982459 5.11047 11.4386
0.715285 1.59282 5.78863
0.296906 4.41933 38.2628
2.24113 8.09692 14.0221
1.77639 2.32842 18.5933
1.77308 3.84268 4.58694
0.474609 1.00718 21.148
2.4299 5.2619 4.30178
0.228564 2.83625 15.0663
0.851836 2.70444 10.3443
1.55516 3.12869 9.9157
0.836296 1.46988 9.05783
1.06036 1.15908 14.4898
1.44388 3.05581 1.56235
0.498918 1.34556 6.37239
0.963055 2.65684 14.4639
1.30234 5.49136 8.30743
0.498886 1.61108 17.249
1.01598 5.02379 19.1341
0.775831 1.78057 3.79544
0.363613 2.44164 10.237
0.641693 2.95883 7.19403
0.495767 5.40596 23.5742
2.66445 3.09848 11.5688
0.999923 2.2724 14.8103
2.01751 8.02163 38.6113
2.18347 6.36193 15.6236
0.782543 3.8657 21.7837
2.00212 3.23752 15.943
1.82329 3.3144 10.3252
0.234723 2.03874 3.22185
0.714482 1.10808 13.3444
1.49782 3.66906 13.2006
1.57089 2.31109 9.51592
0.904791 2.20352 4.7648
0.706607 2.40359 15.0544
1.39439 3.27707 16.2747
1.24077 5.72971 14.5401
0.821402 4.7716 13.5875
1.28884 2.53721 26.885
1.79646 7.35603 14.8998
1.48473 7.76535 39.8166
1.26787 4.18311 7.35369
0.573528 0.850721 8.37966
1.19351 3.63732 17.1479
0.732759 2.94736 1.9521
0.175086 4.17335 20.819
2.00889 1.57246 13.496
0.930125 4.01005 7.67962
0.687925 1.53935 8.23382
0.574508 5.19834 31.4501
2.52328 7.61434 27.0223
1.27287 1.51729 21.1894
1.7519 9.10213 13.2933
1.42656 3.11644 23.2007
0.791245 6.3662 27.5171
2.53828 4.2384 21.95
1.58618 4.46585 16.2314
1.43925 3.98953 14.1806
1.06573 5.76214 12.8786
0.877275 3.92875 13.6508
1.11004 1.61171 20.2255
0.998113 3.54316 6.0293
0.643705 0.251257 8.50725
0.37442 2.08183 10.8287
0.931423 6.0497 12.0382
1.28602 4.0035 3.3052
0.682842 3.94606 15.6906
1.01692 3.149 9.87608
0.947855 4.14528 19.4189
1.32169 2.82833 17.2626
1.58134 3.55143 7.65085
1.31564 3.80402 33.1694
2.28027 2.53739 7.37714
0.591427 2.52227 15.8507
0.792064 6.50717 14.7827
0.969261 0.667617 26.0329
1.39763 9.87985 20.1108
1.99454 0 0