# pn-170911/RbIIA-31-USN3-1280-1959.psd
# Power spectrum* (dif=0,1,2) (really just |FT|^2)
# NOTE: only the first half! (symmetric)
# weeks: 1280-1959
# 193 clock-days, 74 excluded
# PSD: 1441
18598.2 0.67347 0.00436584
839899 16.2362 0.0105182
2.10944e+06 37.8518 0.0134021
585869 18.6507 0.00999546
369698 20.3401 0.0118757
194176 14.8237 0.017989
129547 14.307 0.0134846
76434.5 12.0604 0.0242715
59304.5 10.4757 0.0172399
35557.5 8.65726 0.0130851
47482.8 18.4759 0.0092818
33422.2 17.8142 0.0244229
30383 13.8924 0.0246714
32021.4 18.7305 0.0306931
24922.8 12.9272 0.0270496
24890.9 17.0954 0.0350769
19814.3 16.1673 0.0363283
17739.8 22.5556 0.0453153
8621.25 8.01905 0.0249996
8481.84 10.313 0.0316983
7798.56 7.86551 0.032417
5520.05 5.93239 0.0293658
4610.09 4.20609 0.0191768
6608.74 11.1038 0.0479107
7086.64 9.50675 0.0471038
6441.59 10.3797 0.0296084
3847.34 5.38559 0.0286121
3725.62 9.16433 0.042116
5233.37 11.9104 0.0674876
3859.45 11.6969 0.0285907
3852.6 10.373 0.0511272
2892.35 7.5623 0.0297929
2630.51 7.14693 0.0422727
1715.77 3.8545 0.0274519
1775.1 4.67722 0.0570045
2159.2 6.14667 0.0601157
2333.47 7.3727 0.0723425
1947.95 7.23735 0.0475352
1483.2 6.87217 0.0531312
1453.03 6.31906 0.0521198
1732.21 6.60798 0.0633524
2696.79 12.9541 0.0639948
1380.69 5.23833 0.0436049
1064.47 5.17247 0.0354048
1056.46 6.75139 0.0761277
1052.83 5.42564 0.0713176
1645.69 8.0858 0.0990688
1042.03 4.77863 0.0591233
1472 9.12965 0.137301
1051.56 5.05922 0.0480884
854.903 5.25809 0.0563048
1131.3 7.21407 0.0919636
1095.22 5.85108 0.0948714
790.965 3.64005 0.0440903
658.691 6.26177 0.0710851
682.001 4.15305 0.074939
807.612 5.12631 0.0818009
827.373 5.58227 0.110722
673.113 4.7878 0.0785771
885.598 7.28862 0.122117
590.847 4.15624 0.0781526
962.845 8.98026 0.135318
367.466 2.17745 0.0582485
487.604 5.169 0.11306
417.097 2.55128 0.0515921
680.61 6.33944 0.134559
554.224 4.7059 0.108494
367.817 2.38396 0.0667185
396.712 3.56216 0.0937489
431.064 3.58742 0.064292
359.161 3.21779 0.0740889
429.001 3.98181 0.096107
408.433 4.39374 0.119075
292.512 1.99054 0.0626157
320.472 4.01734 0.0974666
332.197 2.90776 0.0817912
402.165 4.30177 0.12475
347.675 3.38116 0.111588
351.138 4.44971 0.114523
304.135 3.66786 0.10997
269.786 3.2546 0.110625
247.813 2.76485 0.0769868
250.863 2.48158 0.0609381
261.821 2.56355 0.0824879
296.803 3.40725 0.0960117
287.552 3.6651 0.126074
245.288 2.41249 0.0944718
220.074 3.103 0.116646
235.151 2.96203 0.109998
287.038 3.61912 0.111815
226.243 2.91071 0.109823
193.307 2.24909 0.0864802
192.761 1.95126 0.0735613
255.921 5.2841 0.18986
216.906 3.7997 0.154729
202.638 2.41914 0.100591
245.286 3.10126 0.138751
165.553 2.47947 0.108321
188.879 3.24703 0.137385
243.573 4.48844 0.208088
186.379 2.95694 0.140549
147.281 1.97914 0.0839837
206.738 3.46255 0.17296
176.095 3.11788 0.126478
125.965 1.96291 0.0997507
172.629 4.17651 0.185147
177.628 3.17944 0.176956
191.047 4.91063 0.27777
145.686 2.28744 0.125074
171.827 3.74883 0.207041
160.28 2.51077 0.122139
148.679 2.65961 0.158215
136.178 2.4671 0.137457
135.034 2.83547 0.171443
123.604 2.69956 0.141583
144.18 3.12764 0.176767
153.712 3.02814 0.17916
134.76 2.87054 0.181522
156.915 4.52386 0.27177
102.564 1.78366 0.123167
122.429 3.01686 0.183659
127.98 3.34553 0.22695
146.581 2.8139 0.172931
101.929 1.66704 0.114327
98.5352 3.1044 0.198881
90.6384 2.56046 0.17316
121.768 3.00968 0.192857
118.265 2.67979 0.199208
131.141 3.51576 0.266745
118.03 3.23642 0.217908
93.2833 2.47704 0.193866
87.0877 2.64961 0.180556
96.7653 1.84965 0.162381
122.287 2.90169 0.212727
81.1112 2.28832 0.18347
90.1647 2.85273 0.216624
77.86 2.18974 0.161337
92.5232 2.89098 0.240254
97.6921 3.11139 0.290317
108.505 2.87063 0.238564
82.6382 2.16686 0.184399
89.0353 3.52028 0.277174
77.1432 3.17907 0.316275
96.8035 2.59037 0.230247
87.8608 2.61829 0.243469
73.6854 2.40013 0.227407
92.7058 2.61224 0.223681
81.9243 2.80346 0.265548
67.766 2.39917 0.264396
67.3666 1.61596 0.162291
84.8285 1.88811 0.19164
84.3325 2.67933 0.243972
76.7103 2.86585 0.307886
75.9976 2.28083 0.229047
71.7509 2.97484 0.346048
95.1444 4.74609 0.531297
76.5565 2.23135 0.209444
73.3592 3.20514 0.314626
61.9656 2.22084 0.243459
62.2914 1.68122 0.207836
69.03 2.50399 0.280408
71.3313 2.90839 0.330485
67.7132 2.74748 0.34613
73.2839 3.20812 0.366364
58.7721 2.09598 0.246161
58.9959 1.88358 0.234925
64.208 2.0324 0.255529
56.286 2.05028 0.245123
57.9866 2.85559 0.337698
52.8883 2.40924 0.297468
57.9418 2.50173 0.310918
56.8244 1.84733 0.230501
76.6851 4.56943 0.563313
57.383 1.94187 0.266525
49.8935 2.57264 0.372976
49.9805 1.75244 0.247245
54.1467 2.30291 0.312701
61.6094 2.17335 0.294094
52.6221 2.02705 0.271529
50.3571 2.36328 0.332914
47.3132 2.25735 0.319913
50.8814 2.44945 0.374554
48.7477 1.68237 0.257044
56.9027 1.8365 0.271651
53.9749 2.13631 0.324604
44.5186 2.30958 0.326711
46.2824 1.76168 0.288635
49.4436 1.87946 0.295733
50.7315 1.82939 0.326264
50.128 2.19351 0.326783
43.301 2.28777 0.391631
52.5076 3.18615 0.504335
46.1377 2.56139 0.404133
44.0117 1.77722 0.2991
52.1826 2.10961 0.379616
48.899 2.2687 0.404715
40.8426 1.85724 0.326084
38.6606 1.69808 0.298802
39.0084 1.82543 0.333449
44.7649 2.19718 0.421604
42.2425 1.8785 0.31671
34.9921 1.8382 0.328763
37.5133 1.78525 0.342918
42.9037 2.30268 0.409931
42.6033 2.34676 0.440833
38.0561 1.74494 0.304583
39.4242 2.19069 0.448398
36.7537 2.04877 0.408543
35.5549 1.65931 0.32129
37.0156 1.67404 0.363413
40.1139 2.71667 0.542544
31.8686 1.74336 0.367496
33.5756 2.26066 0.490149
36.9029 3.26199 0.652997
35.2819 1.97381 0.451476
35.4193 1.67339 0.383778
31.4054 1.51251 0.327415
35.9821 2.28785 0.443029
33.2359 1.86628 0.419354
35.6078 1.69001 0.373185
31.149 1.46065 0.354265
32.6091 1.83061 0.367536
38.0856 2.8679 0.665927
33.0638 1.57561 0.363717
26.9419 1.73324 0.384822
32.251 2.03505 0.480255
34.2446 2.00974 0.493714
31.8878 1.50891 0.380285
31.5041 1.98071 0.467338
27.6775 1.66795 0.404579
30.227 1.75085 0.423922
32.7271 1.65628 0.409551
31.6813 2.44792 0.606725
27.7037 1.69607 0.41315
26.2852 1.94436 0.452242
30.1334 1.88406 0.472358
27.2862 2.12535 0.531512
31.7027 1.75989 0.426337
29.7348 1.73432 0.476563
29.8571 1.73114 0.468638
26.3403 1.54484 0.451604
30.5118 2.32525 0.66482
27.0422 1.67621 0.434043
27.1101 2.11517 0.613486
30.6139 2.00935 0.53925
28.8236 2.62576 0.690792
26.334 1.9786 0.571192
29.9023 3.30559 0.818971
26.6093 1.55454 0.454533
26.8504 2.20225 0.560569
27.6128 1.63754 0.478304
29.5523 2.35322 0.633875
25.779 2.27271 0.692326
27.092 1.80325 0.587213
28.1122 1.99231 0.507704
30.1387 2.40255 0.725043
25.5192 2.49812 0.810607
25.907 2.09914 0.740152
27.7593 2.54737 0.758668
29.5132 2.55999 0.732062
26.5295 2.13163 0.691779
24.2128 1.84223 0.548866
24.0778 2.18989 0.63236
24.7252 1.79055 0.546812
27.1926 2.21904 0.6958
24.9426 1.51666 0.500543
26.4474 1.77625 0.605855
21.6736 1.64922 0.526745
20.4464 1.74475 0.556283
21.6746 1.77593 0.594323
23.2007 1.74003 0.572523
25.0932 1.99371 0.683643
22.2645 2.07254 0.74021
20.1459 1.91092 0.643105
23.2523 1.95016 0.688305
22.4622 1.84828 0.632677
24.8227 2.11557 0.691884
22.1966 1.82944 0.648991
24.7519 2.46064 0.844754
21.4097 1.70672 0.63753
20.7863 1.83339 0.661097
22.5412 1.75534 0.640067
23.6471 1.8443 0.631853
21.7987 2.04075 0.763574
21.3607 2.32474 0.824268
21.2293 1.90562 0.781384
22.9159 1.95767 0.743665
22.6836 2.1918 0.848587
20.7123 1.90472 0.677732
18.6381 2.15161 0.786464
20.2557 1.79888 0.705437
24.109 2.07852 0.749333
24.4152 2.17259 0.859292
19.3919 1.66874 0.677417
20.6252 1.89644 0.747885
18.7725 1.78521 0.741838
21.2778 1.88545 0.721264
20.7914 2.40586 1.04134
24.7248 2.33744 0.958232
20.7787 2.04726 0.871105
15.8465 1.70464 0.700228
18.3256 2.13811 0.872673
18.1151 1.85537 0.783834
22.0947 2.3842 0.994816
22.2671 2.65024 1.05521
18.2512 1.93911 0.799081
17.5525 2.09195 0.955786
18.8973 1.8256 0.79968
20.0009 1.79269 0.730396
18.0168 1.74281 0.848811
18.8589 1.97859 0.825751
18.745 1.85464 0.789248
17.1566 2.60009 1.13064
17.3397 2.21215 1.03214
18.4769 2.0377 0.844281
19.1255 2.15958 0.985688
18.1617 2.32859 1.13074
17.908 2.43006 0.980525
16.6023 2.11465 1.03273
16.9207 1.89428 0.828897
19.3205 2.12049 0.934444
16.2904 1.85762 0.882432
18.0372 2.29283 1.07995
16.936 2.26128 1.04501
17.4307 1.64552 0.79238
18.2473 2.77736 1.30751
16.3038 1.92459 0.939601
18.2516 1.92198 0.929084
17.8725 2.35892 1.25682
17.1023 2.42295 1.15062
17.0366 1.79356 0.860692
19.7655 2.02145 0.93799
17.9403 2.32564 1.21712
15.1847 2.30911 1.15348
14.7595 2.25391 1.13757
18.5091 2.38601 1.24604
20.9485 2.48583 1.20981
13.9373 1.89446 0.972861
13.8474 1.8768 0.983612
15.5697 2.03307 1.0098
17.5976 2.11778 1.0931
15.4898 2.5494 1.35508
15.8696 2.19836 1.26964
16.407 1.86554 0.956809
13.9764 1.56624 0.840305
14.6666 2.04317 1.05399
14.8152 2.05898 1.05413
15.9649 1.90402 1.02129
15.4913 2.09322 1.14285
14.3259 2.231 1.26862
12.9909 2.17634 1.16648
17.3315 3.20608 1.86996
16.8901 2.02963 1.01769
14.9625 2.33137 1.3453
14.656 2.40134 1.3665
14.0487 2.2252 1.28129
16.9831 3.06054 1.72607
13.8744 2.55592 1.42355
14.8223 2.06939 1.30966
16.8426 2.81376 1.54746
15.981 2.6722 1.55274
12.7376 2.18707 1.24279
13.0052 2.45701 1.47071
14.5289 2.17976 1.378
16.7639 2.33857 1.31872
13.9106 1.87914 1.18417
13.2021 2.93108 1.76732
12.9665 2.22513 1.27115
12.3699 2.58448 1.6256
15.7705 2.37958 1.38796
13.8646 2.38805 1.43958
14.381 2.30995 1.38167
13.7753 2.25975 1.42421
13.122 2.60767 1.71696
13.4601 2.5116 1.6837
15.3512 2.32655 1.39045
13.9081 2.23162 1.40261
11.6354 2.36838 1.54567
12.4178 2.88286 1.8479
13.8609 2.53983 1.51383
15.0741 2.85642 1.88405
14.0672 2.40041 1.43264
10.5881 2.04977 1.37972
12.4311 2.28329 1.4669
12.929 1.86501 1.25164
14.9401 2.90839 1.92038
13.4302 2.37512 1.59415
13.0681 2.62009 1.71307
11.1992 2.25472 1.60606
12.7357 2.77578 1.77505
11.625 1.74678 1.25993
13.1338 2.40971 1.59537
12.1666 2.26435 1.65006
11.7521 2.07894 1.4154
10.3735 2.24813 1.54509
11.6937 2.6117 1.82542
15.1974 2.50755 1.71253
14.0499 2.53288 1.8419
11.1647 2.45163 1.81492
11.3702 2.51947 1.6908
13.0297 2.45758 1.82715
13.7509 2.57892 1.77248
11.3983 2.25913 1.63494
12.5607 2.06296 1.4538
11.555 2.39403 1.77678
12.0871 2.95973 2.21204
11.1297 2.29296 1.72961
11.7306 2.57127 1.95343
13.4673 2.64052 2.09379
11.4216 2.19888 1.43682
10.8686 3.15309 2.39006
11.5002 3.27998 2.39128
13.6425 3.30943 2.51075
12.6102 2.53966 1.96399
10.6544 2.28893 1.87938
11.1148 2.85037 2.03473
11.549 2.52615 2.07967
11.7539 2.64244 1.90092
10.6558 2.15364 1.79761
11.8482 2.82619 2.25357
10.7445 2.46139 1.84301
11.6623 3.21401 2.43988
9.63507 2.70086 2.15143
11.5487 2.61973 2.01723
12.3962 2.68782 2.24871
11.1915 2.34261 1.82264
11.2028 3.07043 2.4092
11.0032 3.04376 2.44867
10.7995 2.64677 2.1028
11.7984 3.1911 2.6519
10.7742 2.69089 2.00283
10.1453 3.53432 3.22498
9.15924 2.30267 1.69675
10.7365 2.79398 2.31039
10.2423 2.48221 2.02399
10.4058 2.39844 2.07946
10.8735 2.51115 2.07472
9.35085 2.79595 2.61362
9.75829 3.04727 2.40908
10.1638 2.86386 2.59881
9.94245 2.32987 1.94768
10.6937 2.59591 2.33942
9.86837 2.80629 2.35568
9.56728 2.83703 2.36612
9.52422 2.36875 2.16421
9.96885 3.30928 2.75899
9.83832 2.372 1.89821
10.1522 2.74761 2.3228
9.76885 2.65969 2.31049
8.68119 2.5928 2.30193
9.34059 2.80209 2.39768
10.8174 2.9866 2.63568
10.0291 2.68884 2.47626
8.86817 2.35941 2.17869
8.84241 2.56762 2.36826
8.88051 2.95825 2.73123
10.4006 2.78811 2.53787
10.5777 2.89865 2.52216
10.0423 2.53214 2.40472
9.15228 2.82137 2.58663
9.13528 3.24588 3.01529
8.45007 2.71488 2.59408
10.144 3.09809 2.59397
9.76859 2.78969 2.93671
9.64142 2.88436 2.67136
8.31046 2.64333 2.62831
8.46357 2.94096 2.52402
10.6004 3.58715 3.38636
9.8586 2.51214 2.60898
9.6224 2.75107 2.48305
8.19021 2.74865 2.66415
7.93022 1.87912 2.00605
9.05293 2.97326 2.72673
9.89638 2.96393 2.87313
9.49352 2.31947 2.30658
8.48156 2.64962 2.56909
8.07569 2.95918 2.76714
8.57681 3.33435 3.18934
9.35284 2.74661 2.8476
10.4116 2.79956 2.71986
10.0746 3.21213 3.0466
8.60176 2.57048 2.72353
8.50049 3.47849 3.54437
9.25015 3.1869 2.96972
8.49483 2.43977 2.42507
8.87594 2.77135 3.04923
8.24215 2.97243 2.96882
8.12833 3.14739 3.40714
8.3791 2.45597 2.3158
8.5351 2.53852 2.71487
9.41426 2.61419 2.75231
9.19158 2.91101 2.85193
8.01754 2.79046 3.15413
7.97215 2.80017 2.75759
9.0496 3.136 3.11957
8.94315 2.22594 2.48072
8.45581 2.47237 2.51024
7.5649 2.62222 2.60204
6.94703 2.33107 2.51836
7.48219 2.35078 2.56914
8.90231 2.93559 3.31093
9.74361 2.87861 2.91887
8.12823 2.50458 2.94429
7.80805 2.94592 3.18035
7.85097 2.60126 2.85472
8.29755 2.47005 2.62593
8.76891 2.51301 2.89678
8.63389 2.5142 2.69168
7.73984 2.5233 3.08844
7.48239 2.81274 3.15629
8.31494 3.36518 3.41476
8.18938 2.66428 3.11542
9.68956 3.14653 3.4167
9.02193 3.43061 3.82556
6.78403 2.83235 3.38378
8.21618 2.97784 3.3172
8.29896 2.60008 3.04902
8.97567 2.73039 3.05691
8.44034 2.90777 3.53357
8.6453 3.69533 4.10121
8.21145 3.21453 3.84462
8.81669 3.10124 3.38677
7.65654 2.62737 3.46204
8.75243 3.16611 3.55536
9.75814 3.29747 3.75743
8.21041 2.30762 2.47595
6.86806 3.3374 3.75749
8.22352 2.78764 3.48873
9.51992 3.11109 3.91181
8.94802 2.56098 2.69523
7.13865 3.07523 3.44057
6.54509 2.29732 2.82975
7.84118 2.68904 3.26295
9.22165 2.99117 3.61912
8.13942 2.88315 3.43799
7.71042 3.15667 3.61571
7.71367 3.04879 3.98201
7.41787 2.47276 3.04591
7.47175 2.99056 3.65544
9.15493 2.9834 3.41528
8.89745 3.1047 3.82955
7.72767 2.73127 3.71295
6.96217 3.00725 3.59197
7.27461 2.93214 3.6257
9.44308 3.46791 3.95895
9.2889 3.0472 3.97009
7.35433 2.40998 3.1773
6.55008 2.31205 2.65978
7.74883 2.87993 3.6768
8.30778 2.75668 3.3907
8.07793 2.85483 3.60198
7.67881 2.92396 3.48718
7.84206 2.95931 3.9888
7.97765 2.63014 3.45296
7.4053 3.25453 4.10918
8.22816 3.24844 4.05094
8.52622 2.76678 3.44391
8.06754 2.9767 4.11485
6.37903 2.42674 3.2311
7.13909 3.05246 3.83118
7.94304 2.8105 3.72127
8.32742 2.40288 3.49608
8.04893 3.15918 4.2749
6.696 2.55998 3.48495
7.53595 2.87059 3.67763
7.27481 3.01724 3.83287
8.15065 3.38388 4.50979
7.63297 2.82918 4.38239
8.3002 2.67431 3.5414
7.97162 3.06415 4.22185
7.02596 3.05946 3.74249
7.06221 2.90471 3.60912
7.77242 2.96777 4.25819
8.58159 2.3294 3.36744
6.50569 3.05495 4.00281
5.8955 2.65274 3.80278
7.20381 3.27027 4.64811
9.06044 3.2966 4.68681
7.99812 3.24544 4.25316
6.42287 2.85973 3.83602
7.1036 3.16012 4.54427
7.54454 2.47765 3.96824
7.65599 2.76682 3.55984
7.3663 3.27593 4.78445
8.70968 3.29557 4.54935
7.76186 2.87378 4.07032
6.45075 3.0512 3.9854
6.46889 2.71818 3.70252
7.21332 3.18664 4.40814
8.26861 2.85327 4.57669
7.18999 2.98184 4.47713
6.54818 3.07001 4.0225
7.20516 3.49058 4.77872
8.37399 2.83438 4.05234
8.25322 2.82221 4.56305
7.50301 2.8772 3.86109
6.74854 2.57281 3.59336
7.05362 2.91954 4.2082
7.3763 3.1302 4.75453
7.47703 2.92944 4.05481
7.03687 2.18489 3.46675
8.17859 3.34405 4.78622
6.12913 3.40582 5.09424
5.82295 2.86234 4.36529
6.98156 3.47869 5.22538
9.28261 3.53223 4.611
7.98845 2.5472 4.14154
6.42434 2.62128 3.66082
5.4144 2.53106 3.85304
7.19118 2.34432 3.68095
8.16337 2.72119 4.14345
7.82416 2.72768 4.32966
7.50008 3.25581 4.63996
7.10652 2.82459 4.69283
7.3766 3.25781 4.95928
6.8448 3.05999 4.69033
7.24513 3.12378 4.72655
7.94184 2.9828 4.29479
7.05444 2.83053 4.5753
5.24433 2.40475 3.97561
6.19005 3.16061 4.85025
7.66836 3.10007 4.93962
8.22676 2.76157 4.26802
6.23167 2.65087 4.58398
5.97246 2.62146 4.17813
6.65364 2.83803 4.39747
8.07137 2.71761 4.59487
6.47759 2.46882 4.22429
6.20341 2.65574 3.90448
6.99468 2.72473 4.142
6.13819 3.01622 4.79467
5.57936 2.64238 4.52408
6.22631 2.68199 4.38006
7.61824 2.84565 4.64588
6.99752 3.09952 4.82418
5.53752 2.68415 4.70422
6.0091 3.05287 4.51599
6.98307 2.74861 4.51544
7.79408 2.60007 4.19372
5.93439 2.14056 3.41369
5.32701 2.59219 4.76403
6.17234 2.78379 4.52178
7.18723 2.98663 4.95588
6.23129 3.05124 5.34284
7.01665 3.09505 5.01698
6.36708 2.4848 3.90624
6.31217 2.85266 5.01877
5.59451 2.80664 4.39787
5.66872 2.40936 4.12702
7.12891 2.66826 4.45505
7.16146 2.66405 4.54518
5.55173 3.01876 5.14439
5.14306 3.16387 5.55643
6.69768 2.75931 4.6556
7.47605 3.08453 5.20161
6.75503 2.58324 4.50308
5.52336 2.69033 4.56912
5.56693 2.84837 5.00467
6.07709 3.05067 5.62444
6.84386 3.35623 5.18089
5.78958 2.42054 4.67732
6.80301 2.82475 4.21254
5.7878 3.00087 5.42005
4.99038 2.30503 3.97686
5.30469 3.02833 5.41078
6.58538 2.80377 5.00074
6.91883 2.51198 4.23131
5.73212 2.82324 5.19431
5.24976 2.9888 5.12457
5.05255 2.75319 4.73894
6.24557 2.90491 5.57171
6.75352 3.03378 4.90978
5.44347 2.73823 5.15892
5.38722 2.84177 4.8196
5.74396 2.88439 5.09428
5.58055 2.42992 4.73483
5.52979 2.36883 4.31578
6.24905 3.07002 5.75185
5.69601 2.50313 4.50442
5.50659 2.92792 4.8687
4.3969 2.70126 5.31678
5.14718 2.85587 5.05415
6.2299 2.18825 4.05843
5.32712 2.72102 5.44243
5.19529 3.08945 5.02116
4.73564 2.63303 5.25199
5.51142 2.87539 5.2681
6.33255 2.52202 4.92191
5.055 2.75361 5.24418
4.949 2.38606 4.35051
4.76253 2.45415 4.38473
4.84922 3.02781 5.80441
5.29412 3.13252 5.70815
4.89292 2.24531 4.95126
5.98235 2.74935 5.11262
5.06331 2.89513 5.15605
4.13587 2.73969 5.5354
4.98912 2.71212 4.84036
5.86722 2.31655 4.14274
5.88794 2.96303 5.75684
4.64579 3.09804 6.06428
4.2601 3.06327 5.77202
5.18545 2.62931 5.32236
5.85133 3.19252 5.83434
5.56 2.72268 5.64832
5.04343 3.18318 6.14199
4.83825 2.81116 5.74103
4.52502 2.51947 4.69561
4.74402 2.83249 5.51918
5.43534 2.79444 5.89143
5.67134 2.80221 5.26106
5.63603 3.37989 5.85077
4.27473 3.19469 6.62312
4.36863 3.15816 6.58053
5.49344 3.15135 6.2033
5.61685 2.60877 4.72872
4.64414 2.63278 5.44213
4.29757 3.12186 6.4677
4.58126 2.73729 4.81447
4.77617 2.55435 5.01257
5.12116 2.56694 5.07649
4.7905 2.69592 5.25173
4.64655 2.64298 5.79788
4.69928 3.2485 6.71172
4.22453 2.88097 5.80077
4.31589 2.29846 4.50933
5.45277 2.34763 4.99852
4.84334 2.7292 5.12793
3.65715 2.34234 4.74654
3.82196 2.84267 5.77937
4.14526 2.60731 5.68297
5.51219 2.89121 5.73569
5.19116 2.86634 6.58437
4.74823 3.25194 6.30299
4.02052 2.86759 5.64992
3.95004 2.91504 5.99934
4.87182 2.97302 6.43694
5.21566 2.90297 5.97018
4.74928 2.97599 5.94534
4.21429 2.38546 5.01347
3.936 2.54424 5.07722
4.12391 2.69777 5.69851
4.86258 2.48638 5.94173
4.99599 3.29464 6.69133
4.94193 2.81875 5.76588
3.79466 2.92857 6.43831
4.51442 3.3637 6.53664
4.63067 2.41884 5.07666
5.13898 2.85167 6.19535
5.04156 2.80527 5.71946
3.80865 2.30583 4.87003
3.54257 3.19201 6.7473
4.31371 2.59135 5.28474
4.33509 2.46219 5.18847
4.63928 2.59815 6.10298
4.28645 2.86078 5.94314
3.69969 3.10955 6.93033
4.03579 3.11193 6.25417
4.33116 2.95363 6.78717
4.59337 2.54396 5.66114
4.55282 2.40708 4.96896
3.69389 2.24613 5.21336
3.69042 2.40146 5.23463
3.48465 2.85003 6.28438
5.14622 3.09766 6.63357
4.37295 2.64069 6.07572
3.76363 2.47059 5.65314
4.0499 3.02653 6.42616
3.83303 2.71481 5.41386
4.60974 2.49914 5.38082
5.00003 2.72741 6.10031
4.27096 2.37747 5.37754
3.71645 2.34793 5.25651
3.52352 2.61644 5.98999
3.83619 2.43963 5.67112
4.42468 3.1236 6.67221
4.26764 2.98563 6.34511
3.93008 2.48077 5.66515
3.46069 2.60558 6.37406
3.47698 3.08746 6.45331
3.98172 2.72374 6.20235
4.98109 3.33241 6.97491
4.2473 2.77217 6.94845
3.88527 2.88764 6.37208
3.51637 2.70891 6.60479
4.19378 2.8489 6.23072
4.69753 3.10423 6.91517
4.64013 2.94637 7.05764
3.95108 2.71055 5.96369
3.73955 2.9797 7.02417
4.02184 2.94058 6.34148
4.09237 2.61437 6.27197
4.64228 2.51617 6.15603
4.43623 2.58973 6.17374
3.43909 2.61182 5.92649
3.5512 3.24434 7.26364
3.48962 2.81651 7.72384
4.89932 2.82648 6.07423
4.61569 3.09351 7.16342
3.92745 2.53332 5.96967
3.2487 2.8596 6.74127
3.81084 3.06286 6.97887
4.3203 2.69385 6.42083
4.38538 3.13448 7.091
4.33247 3.01129 6.7291
3.92976 3.10259 7.44455
3.63001 2.91863 7.11637
3.92643 2.60654 6.58205
4.36885 2.95443 6.2903
4.3625 2.545 7.1711
4.40217 3.04765 6.66281
3.3891 2.55816 6.72756
3.85388 2.83341 6.15998
4.15493 2.88901 6.82726
4.87854 2.78086 6.9016
4.17371 2.58299 6.23736
3.69286 2.87858 6.83313
3.51351 2.91549 6.88553
4.48441 3.05994 7.51561
4.23638 2.57072 6.07466
4.04288 2.81014 6.59234
3.64182 2.68263 6.39641
3.67039 3.1351 7.26495
3.76644 2.71996 7.58657
4.00002 3.23664 7.87463
4.67611 3.15276 8.2872
4.94588 3.15669 7.50955
4.28333 2.89666 6.18511
3.14008 2.73784 6.87111
3.67648 2.86913 8.11038
5.16999 2.96341 6.69945
4.29437 3.07555 7.7999
3.83555 3.03443 7.4457
3.31553 2.73475 6.17384
3.81975 2.40883 6.53287
4.45341 3.05918 7.24348
4.53332 2.71249 7.28641
3.92527 2.57846 7.39435
4.00699 2.92759 6.73998
3.84432 2.79307 7.20907
3.81766 2.86527 6.83777
4.42974 2.84903 7.57956
4.84613 2.94603 6.89402
3.8835 2.59349 7.68871
3.47061 2.96755 6.63245
3.41012 2.9627 7.75031
4.57654 2.29414 5.94198
4.92511 3.06151 7.56454
3.93285 3.09466 7.78829
3.46756 3.29367 8.74651
3.72465 3.25784 7.61427
4.74467 3.06964 7.16754
4.58493 3.13463 7.90476
4.32857 2.86351 7.48614
4.02232 2.61024 6.82163
3.48033 3.00108 7.78077
3.43243 2.83131 7.93941
4.32696 3.18207 8.7929
4.79157 3.16773 8.06257
4.78126 3.45288 7.45051
3.29509 2.78392 7.48538
3.35154 3.2666 9.29113
4.45114 4.32725 11.1696
5.25848 3.58928 9.41344
4.41721 3.27525 9.2779
4.13936 3.87723 9.07378
3.63566 3.23145 7.86947
4.24993 3.28653 8.80926
4.30413 3.15865 8.17675
4.3751 2.78343 7.9717
4.34348 2.74252 6.82235
3.90098 2.63637 7.26519
3.68554 2.93622 8.07054
4.16547 3.04645 7.75438
4.61497 2.9442 8.39631
5.02828 2.83743 7.43029
3.97553 3.11411 7.99869
3.17292 2.91684 8.05328
4.08565 2.85169 7.37786
4.98119 2.54504 7.19403
4.62038 2.82799 7.74935
3.83251 2.55356 6.632
3.8969 3.15664 8.47858
4.16649 3.21921 7.93172
4.00137 3.04613 8.59169
4.5007 2.8022 7.53004
4.76539 3.12051 7.84579
4.5066 2.88946 8.2929
3.54098 2.71943 6.78008
3.28723 2.46513 7.07707
4.32714 2.73681 7.962
5.03631 2.52899 6.66611
4.72655 2.9511 7.74815
3.39694 2.80681 7.24275
3.45507 2.57461 7.53956
4.65948 2.83074 8.0147
4.87084 2.95185 7.09292
4.00966 2.88698 7.92542
3.96403 2.91246 8.17372
4.12319 2.76574 7.68275
3.86255 2.66232 7.50414
3.97647 3.03296 8.95261
4.75146 3.54815 9.37173
5.11802 2.96715 8.64049
3.99354 3.12885 7.87401
3.25399 2.5254 8.04602
4.05154 2.84181 7.72987
4.69977 3.27299 8.96169
4.81799 2.58153 7.49769
3.56164 3.15532 8.95785
3.6631 3.00497 8.80422
4.66312 3.16639 8.38617
4.68233 2.74688 8.51055
4.45638 2.9233 8.26076
4.13853 2.92914 7.69621
4.21043 3.12472 8.98277
4.04418 2.78658 7.50396
3.69325 3.12972 8.95255
4.33859 2.82096 8.63355
4.89951 2.92896 8.28201
4.26691 2.544 7.07345
2.97002 2.63569 7.66797
3.44252 2.64092 6.38606
4.09228 2.54184 8.25835
5.00087 2.73709 8.56893
3.92207 3.09238 8.36422
3.24309 2.90559 8.27023
3.96498 2.87132 8.56253
4.94068 3.13158 8.27314
3.97296 2.79 7.21864
3.87008 2.76188 9.05243
4.12349 3.45016 9.23846
3.95308 2.61668 7.54038
3.29043 2.42802 7.73065
3.99875 2.83894 8.26321
4.7592 3.13598 8.26586
4.36974 3.39321 10.1036
3.33639 2.66977 7.92925
3.31966 2.77279 8.16345
4.15705 2.90761 8.42557
4.71683 3.0443 8.55331
4.10337 2.80658 8.36235
3.45445 2.81115 8.91791
3.52494 2.87993 8.02872
3.81981 3.16032 8.79494
3.92604 2.51649 8.24085
4.25175 3.20529 9.38506
4.16313 2.90952 8.05945
3.96925 3.44683 10.1877
3.33224 3.23119 10.0715
3.61845 3.21509 8.69777
3.93187 2.90366 8.6115
4.02303 2.94904 8.67054
3.66669 2.99907 9.13621
2.76646 2.73395 9.79262
3.59531 2.98629 8.53322
4.44071 3.2486 9.47428
4.18748 2.7594 8.62398
3.57024 2.53587 7.41843
3.16029 3.0176 8.51092
3.39055 2.87879 8.92065
3.71498 2.72618 7.42267
3.93589 2.73208 8.23865
3.91818 3.0589 8.92022
3.67011 2.76434 9.01435
3.45971 2.9247 8.38687
3.09823 3.0147 9.56608
3.80494 2.95328 9.62267
4.41458 2.98074 8.43247
3.63418 2.87507 9.38009
2.76778 3.09178 9.10486
3.17351 2.76952 8.43883
4.22002 3.52113 9.93416
4.39955 2.96622 8.67331
3.50359 3.17467 9.43564
2.78162 2.65773 8.32673
3.32322 2.97688 8.70613
3.48758 2.85338 9.96505
3.84491 2.67562 9.10196
4.00433 2.93796 8.80046
4.1108 3.07014 8.83422
3.39705 2.83896 9.31657
2.63428 2.81689 8.58476
3.37829 3.10244 9.27548
4.28705 2.66295 9.06379
4.01477 3.43737 10.5639
3.07659 2.9801 8.71767
2.39904 2.90227 9.6192
3.31397 3.44471 9.62186
4.17411 2.74294 8.90536
3.90932 3.36062 10.5652
3.28135 3.21616 9.4833
3.06109 2.67262 8.69942
3.06182 2.78836 8.29185
3.24043 2.90324 8.03108
3.10366 2.64251 9.1193
3.79889 3.24729 11.0899
3.81106 3.02782 8.51307
2.80491 2.62124 8.53418
2.77916 3.07268 9.38199
4.0027 3.26364 10.0769
3.74767 2.66345 9.61179
3.5294 3.24773 9.51972
2.80824 3.13836 9.22937
2.449 2.87134 9.93054
3.63833 2.76741 8.46795
3.86413 3.23878 10.0106
3.4454 2.95341 8.07894
2.94665 2.61987 9.28811
2.94505 3.42583 10.8942
2.88095 2.91433 9.25874
3.24195 3.20931 10.3425
3.67884 3.00392 9.13465
3.43435 2.86691 9.28377
2.90071 3.10629 10.4187
2.61892 3.43426 9.9319
3.14753 2.55017 8.57818
3.76766 3.23147 9.54243
3.26479 2.66745 10.1122
2.93805 3.33115 10.2978
2.65401 2.85568 10.0325
3.35768 3.38395 10.1533
3.38085 2.87367 9.63456
3.30387 3.15405 10.2454
3.04396 3.29377 10.1858
2.55248 3.00386 10.3606
2.75823 2.57461 7.98312
3.08251 3.03314 10.7117
3.74964 2.95797 9.83882
3.52118 2.88146 9.89217
3.12888 2.94689 8.80983
2.7171 3.42082 11.4995
2.98033 3.20049 9.29115
3.26313 3.30383 10.4076
3.73211 2.84274 10.2201
3.11411 3.42276 10.3568
2.66275 3.41631 10.6233
2.88484 2.98693 10.018
3.6501 3.03186 8.91066
3.17714 2.46889 9.42721
3.42394 3.15451 9.74907
2.65895 3.03524 9.75396
2.62705 2.86732 9.34823
2.84892 2.62524 9.22845
3.02164 2.82373 9.71412
3.53433 2.96247 11.1148
3.42763 3.10951 9.5426
2.50856 3.27388 10.1445
2.56226 2.95536 9.38182
3.10583 3.064 10.4499
3.42829 3.03658 9.47941
3.00243 3.02324 10.0802
2.57705 2.88348 10.1719
2.63778 3.34704 9.73276
2.97529 3.2856 10.5671
3.24289 3.15339 11.2948
3.42746 3.4083 11.6971
3.1542 2.8722 10.2171
3.02305 2.87751 8.53502
2.44655 2.89072 10.2717
2.75701 2.69628 9.20449
3.38167 3.18791 8.43881
3.14798 2.91433 11.0522
3.00035 3.22622 11.2141
2.33124 2.81333 9.19702
2.70181 3.1919 11.4585
3.26922 3.40976 10.4516
3.42609 2.65029 9.21669
2.98306 2.49408 8.58939
2.45766 2.808 9.56297
2.64867 2.99583 10.3878
3.12276 2.87386 9.38169
3.10712 2.77911 10.5175
3.30898 3.23229 10.0513
2.46398 3.09285 12.0018
2.78313 3.46286 10.6877
2.77377 2.88527 10.1837
2.93796 2.93045 10.9223
3.55445 3.27451 10.0227
3.37743 2.85577 8.56509
2.32957 2.57197 8.74481
2.56186 2.90518 9.68462
2.95237 2.99366 10.0697
3.38725 2.86962 9.80739
3.28574 2.92702 9.28186
2.3239 2.56998 9.45193
2.35581 3.09332 10.8405
2.71286 2.53895 11.2009
3.35191 3.10095 9.40289
3.12437 3.18973 10.9181
2.70754 2.90928 10.2796
2.64543 3.32675 10.9855
2.7567 3.15154 11.2826
2.98534 3.1279 10.1658
3.34318 3.2984 11.0014
3.43668 3.25233 10.3791
2.65666 3.1769 11.0631
2.4359 3.45607 11.4755
2.72095 3.12628 10.8285
3.42247 3.22358 11.8608
3.85582 3.06549 10.8198
2.96065 3.37168 10.9543
2.43582 3.19388 12.3997
3.07982 3.39228 11.0401
3.34373 3.35481 11.8052
3.4034 3.74777 11.7995
3.02804 2.94989 11.2119
2.81381 2.75302 9.67002
2.31481 2.95631 10.0654
2.85964 2.73694 10.7848
3.44084 3.00411 9.90883
3.52943 2.61129 10.2942
3.22047 2.98524 9.88078
2.517 2.93999 9.7031
2.63354 3.50047 11.5313
3.15507 3.26492 12.3787
3.5825 3.18773 10.3959
3.07433 3.06844 10.5931
2.39644 2.94264 11.0894
2.59368 3.01878 9.89993
3.15405 2.89338 11.2723
3.8882 3.26502 10.2818
3.22545 2.74137 10.3082
2.85727 2.97123 10.9936
2.76472 2.54119 8.87762
2.53754 3.03242 11.252
2.94359 3.12564 10.5268
3.36592 3.07136 13.0749
3.58196 2.92115 10.4662
2.87834 3.09977 9.99994
2.37522 3.25332 11.5944
2.78082 3.71673 13.3287
3.51668 3.37126 11.3383
3.30181 3.30686 11.7905
3.03937 3.08922 10.8245
2.85424 2.75704 11.1035
3.15866 3.39694 10.6507
3.27641 3.69148 15.2175
3.66194 3.01598 11.2486
3.35577 3.45148 10.829
3.24138 3.2064 11.3289
2.5891 3.65951 14.5215
3.10363 3.52841 11.8423
3.49583 3.52576 11.4759
3.80537 3.06082 11.037
3.09904 3.28734 11.5681
2.58545 3.26613 12.31
2.73793 3.15122 11.2925
3.59467 3.62023 13.3048
4.01524 3.9022 13.4374
3.13284 3.52433 14.5755
2.89627 3.76683 12.3979
3.03669 3.85284 14.567
3.26444 3.85003 13.9129
3.37596 3.59684 12.7589
3.3875 3.66339 13.235
3.17884 3.28007 12.1044
2.99982 3.31642 11.7308
2.65136 4.0767 15.7061
3.42782 3.32195 13.0889
4.09636 3.69837 10.5644
3.31111 3.42242 14.0387
3.00468 3.47815 11.2498
2.45831 3.29938 11.4379
3.48276 2.8782 11.0957
3.63391 3.23775 11.511
3.30867 3.18532 12.0723
3.06714 3.22667 11.7838
2.80402 3.86034 15.5489
3.48967 3.27499 11.3571
3.37688 3.63642 12.398
3.24938 3.15144 11.087
3.33516 3.09771 12.2248
3.18207 3.2719 11.2633
2.61663 3.23543 12.354
2.90387 3.0372 10.6501
3.36548 3.14601 13.4092
4.13387 3.91577 12.2421
3.19373 3.03954 12.4035
2.34027 3.2722 11.4678
2.80502 2.70768 12.7146
3.64768 3.08954 10.8534
3.54174 3.46677 11.1768
3.10398 3.40229 11.6344
2.65728 2.89501 10.4024
3.04158 3.33843 12.5475
3.20045 2.91661 11.9478
3.08702 3.40745 12.9383
3.46705 3.49634 11.5592
3.30495 3.16417 13.491
2.95697 3.62115 11.1262
2.5535 2.99824 12.5812
3.59502 3.27143 11.6394
3.90248 2.82089 10.3763
3.28971 3.03215 11.7118
2.59916 3.25926 11.8452
2.72524 3.19961 11.3583
3.29582 2.81869 13.3976
3.77135 3.7603 11.8827
3.17862 3.8043 13.254
2.74764 2.6627 9.85455
2.92374 3.20309 12.0399
2.90343 3.24057 11.8192
3.19228 2.9715 11.0512
3.42111 2.9448 11.4674
3.34581 2.73608 10.7857
2.77722 3.15298 11.0086
2.43811 3.36803 12.9077
2.9219 3.40546 12.5274
3.65473 2.96896 12.2925
3.27433 2.99767 11.1599
2.98351 3.76132 11.8992
2.41858 2.62411 11.3787
3.07032 2.63141 11.0494
3.56856 3.0106 11.5112
3.34162 3.08842 11.2402
3.29432 3.39908 12.9716
2.9611 3.18437 11.9425
2.99845 3.65503 13.4248
2.89184 3.18927 10.8633
3.15443 3.31654 12.8337
3.66632 3.15481 12.3144
2.96179 3.31511 11.9565
2.50998 3.50247 13.5751
2.55574 3.36838 13.2098
3.52544 3.22621 12.5711
3.96502 2.90412 10.9502
2.99545 3.24816 11.8569
2.51198 2.8098 10.4709
2.87896 3.22657 12.9228
3.43933 3.20565 12.0667
3.53587 3.08971 11.5527
3.1314 3.0108 10.5878
3.04292 2.87189 11.537
2.99635 2.73821 12.5884
2.92059 3.74215 11.8644
2.98293 3.10303 11.0083
3.40847 3.02928 10.548
3.5975 2.77566 12.0648
2.84243 2.96695 11.0422
2.36779 2.62864 10.5834
2.99359 3.34313 12.1755
3.38992 2.65017 11.1753
3.18904 2.94031 11.3476
2.46986 3.26302 13.2054
2.46321 3.57232 13.4471
3.22662 3.28541 12.9106
3.76924 2.98209 10.5573
2.89158 2.87288 12.0813
3.30628 3.7273 12.1824
2.93988 3.38261 13.3439
2.65214 3.10735 10.9099
2.68326 3.08343 12.694
3.25213 2.9738 11.2368
3.78831 3.09467 11.7628
2.93038 3.3744 12.6092
2.22991 2.94967 11.1429
2.55434 3.05528 11.0638
3.20578 2.93404 12.5334
3.52186 2.93572 11.714
2.98739 2.89486 11.7903
2.52832 3.30083 11.722
2.89641 3.07519 12.9127
3.1827 2.78608 11.0635
2.97429 3.1148 12.1284
3.1552 3.50535 11.8575
2.94044 3.01307 12.3824
2.83809 2.88843 10.9919
2.45378 3.04817 11.1465
2.90974 3.18538 13.4677
3.74755 3.46949 14.0976
3.50907 4.38808 13.9864
2.29699 3.16634 12.3117
2.60323 3.15355 12.423
3.20372 3.43217 12.617
3.60831 3.68364 14.2564
3.35923 3.67762 14.1126
2.62284 3.24096 12.8701
2.82432 3.31961 12.4918
2.77435 2.80191 11.51
2.97466 2.97834 14.6781
3.29157 3.86971 12.5352
3.22132 3.26461 12.1108
2.64388 2.90187 11.7174
2.45031 3.3174 12.1866
2.7005 2.94622 13.4083
3.68688 3.13162 11.4946
3.39077 3.40225 13.1287
2.60903 2.95613 12.4713
2.25279 3.47719 11.9264
2.93116 2.79655 12.0418
3.41248 2.88031 10.4911
2.8603 3.00178 11.7237
2.73333 3.09551 11.8546
2.57601 2.95798 13.0075
3.25234 3.29944 11.5276
2.97279 3.20904 12.8136
3.03057 3.50723 12.441
3.03191 3.01956 12.5054
2.98905 2.91976 10.831
2.31304 2.70996 13.1898
2.43535 3.34785 12.6201
3.1081 3.32371 11.759
3.18584 3.10639 12.7739
2.70042 3.26747 12.6581
2.10345 3.20943 13.237
2.36199 3.37404 13.2283
2.94806 3.39793 11.7644
3.07842 3.1867 13.2296
3.01537 3.42554 11.802
2.37501 2.91991 12.4614
2.67962 3.01592 12.7506
2.82617 3.3224 12.804
2.57934 3.28997 12.2566
2.84303 3.15573 13.2324
2.96652 3.20662 12.5998
2.53545 3.5088 12.5288
2.34328 3.00447 13.9806
2.93694 3.30922 11.0333
3.25965 3.31339 12.9708
3.07974 3.09224 13.1309
2.51446 2.81364 12.9145
2.24163 3.89892 15.3501
2.68788 3.27221 11.3988
3.48968 3.67865 12.2684
2.94853 3.1998 11.9569
2.79479 3.04675 12.6948
2.39418 2.79135 13.4311
2.63832 3.71188 14.3852
2.7528 3.54982 13.2446
2.98071 2.80095 11.6818
2.70427 3.20558 11.6858
2.64444 3.66979 15.3008
2.57066 3.2857 12.8362
2.44201 3.65444 15.3282
3.11458 3.93902 13.8871
3.2499 3.70277 14.1466
2.93993 3.0068 12.1963
2.27593 3.2772 12.363
2.43877 3.2223 11.7238
2.85641 3.38355 14.0354
3.02273 3.33502 13.9435
2.84561 3.03439 12.0646
2.55013 3.05857 11.631
2.53997 2.88537 12.099
2.69182 3.03653 10.857
2.63894 3.55612 14.2327
3.04106 3.15153 14.1546
3.2621 3.17104 11.527
2.28919 3.07196 11.1378
1.97209 3.05129 10.8442
2.75283 2.54286 10.835
3.11909 2.77638 13.325
3.11708 3.82014 13.5819
2.1743 2.81725 11.4937
2.0817 3.05913 12.412
2.61547 2.89953 12.4207
3.07773 3.17948 10.8444
2.74131 2.89044 13.1877
2.72262 2.92829 10.6272
2.39499 2.88737 12.7119
2.67398 3.59544 12.7484
2.63849 2.89915 12.213
3.07732 3.19603 12.6658
3.21522 3.11716 12.4881
2.61261 3.02561 12.549
2.09639 3.12735 14.6155
2.44078 3.70021 11.8017
2.99422 3.09912 13.0836
3.16516 3.30485 13.8737
2.80115 3.30326 12.4889
2.19208 3.47969 13.5319
2.56656 3.63982 14.291
3.14793 3.00957 11.7797
2.95584 3.19794 12.8754
2.89321 3.58173 13.1521
2.6215 2.88235 11.595
2.42822 3.10078 12.7043
2.46191 3.32876 12.1861
2.7826 2.82189 14.1283
3.17661 3.64114 13.4494
2.84588 3.81491 15.7098
2.5608 3.46484 13.1357
2.22555 3.47612 14.7911
2.90744 3.22404 12.892
3.17138 3.20496 13.9158
3.3398 3.61305 12.004
2.31189 2.86504 11.231
2.41222 2.88582 13.4498
3.08179 2.94758 11.4319
2.89248 3.06283 12.0108
3.02828 3.5328 13.2809
2.6425 3.35512 11.4368
2.7302 2.69079 10.0779
2.38587 2.8105 11.0303
2.57303 3.45488 14.5514
3.26743 3.06795 12.848
2.99884 3.26096 13.0189
2.60825 3.45129 14.2236
2.20109 3.48192 12.8329
2.58146 3.49084 13.6566
3.27615 3.04545 12.3603
2.96461 3.18304 11.6389
2.45061 3.27912 13.4474
2.19896 3.21309 12.7908
2.72335 2.83749 11.1278
3.13597 2.95703 13.2904
3.18739 3.27602 13.0888
2.97341 2.87759 13.9664
2.42606 3.49598 12.8309
2.35013 3.33522 12.1432
2.48307 2.96997 12.3932
2.57412 3.15157 13.2026
2.85537 3.21129 12.5928
2.87368 3.32933 13.0719
2.33759 3.21894 12.4225
2.2556 3.12 12.1715
3.05869 2.97373 12.265
3.20577 2.93607 12.3006
2.43391 3.07963 12.2784
2.33988 3.0442 12.6035
2.48438 3.30079 12.3274
2.77014 3.0391 12.4003
2.99156 3.21305 12.4003
2.58187 3.18423 13.4082
2.7632 3.96031 13.4629
2.45847 3.23246 14.3953
2.49093 3.52303 15.2493
2.77068 3.44255 12.8424
3.18766 3.32962 13.3606
3.12045 3.31364 12.7848
2.50207 3.2175 13.6379
2.38897 3.81432 15.3385
2.95252 3.59489 13.3811
3.48595 3.09105 12.5717
2.97936 3.45808 13.8655
2.59276 3.66644 15.8031
2.67544 3.79732 16.8096
2.92645 4.86742 18.464
3.00213 3.72141 11.9913
2.74708 0 0