# pn-170911/RbIIA-35-KOKB-1280-1959.psd
# Power spectrum* (dif=0,1,2) (really just |FT|^2)
# NOTE: only the first half! (symmetric)
# weeks: 1280-1959
# 1 clock-days, 1 excluded
# PSD: 1441
394.713 0.0924545 0.0350012
18345.5 4.05877 0.00416483
430498 20.5574 0.00378118
43995.3 0.66952 0.00462507
72043.8 0.426737 0.00369675
35472.5 0.184357 0.0036223
9458.58 0.844001 0.00527295
13490.3 0.250293 0.00318994
19986.7 0.498667 0.00476726
17517.3 0.6709 0.00456881
6693.4 2.50507 0.00128181
7326.45 1.36374 0.00846155
13852 3.51831 0.000847915
6786.74 0.59913 0.00237944
3683.91 1.18091 0.00925467
9989.06 2.22444 0.00740894
3269.92 0.0481527 0.00417015
3097.61 0.10555 0.00510357
2863.84 0.120241 0.00506979
2981.3 0.2617 0.00378029
1123.34 0.151804 0.00553689
876.979 0.399622 0.00253634
3529.58 2.36872 0.00141526
2184.43 0.464966 0.00813792
1155.82 0.00324839 0.00373211
92.5416 2.05988 0.0121609
1741.85 0.32725 0.00516876
1514.9 0.459129 0.00977314
380.333 1.31177 0.0028418
2747.59 2.36989 0.0124605
720.703 0.154319 0.00145238
173.947 2.25846 0.0203337
942.663 0.704164 0.000240283
1918.98 1.97113 0.0107685
1472.27 1.98489 0.0264987
566.648 0.386766 0.000307582
699.671 0.386478 0.0127288
559.18 0.333025 0.000427634
953.015 1.38069 0.00318908
814.566 0.445706 0.00910116
386.555 0.138095 0.00101817
730.853 0.442697 0.0100218
429.631 0.0271844 0.00388654
248.262 0.234726 0.0103104
43.2092 1.93694 0.0148519
484.424 0.891309 0.00142456
42.649 2.99037 0.0401013
354.616 0.317129 0.000130671
173.687 2.07776 0.0117097
469.903 1.5311 0.0374512
228.767 0.14148 0.0104131
932.284 2.52882 0.0366635
389.589 0.5503 0.00260936
270.455 0.357017 0.000137649
697.154 1.83335 0.0352745
82.2269 0.722779 0.0188276
285.511 0.250741 0.0160047
184.507 1.05644 0.00437966
416.082 1.17311 0.0109033
62.8286 0.812159 0.0206821
220.186 0.44244 0.0233455
440.217 1.82288 0.0182762
495.133 1.69901 0.0470806
239.359 0.172379 0.011779
40.5293 1.24474 0.035326
145.551 1.80117 0.0167752
573.246 4.0374 0.0636322
157.656 0.262448 0.000684758
162.683 0.168171 0.000957218
80.2722 1.60238 0.0519593
166.441 0.483551 0.0279133
144.528 0.824532 0.0421598
429.183 2.18116 0.0657096
101.166 1.2991 0.0141991
195.75 0.542058 0.0319161
91.9408 0.0464531 0.00675039
141.568 0.502973 0.00313029
96.0662 0.0276357 0.00597807
187.419 0.565594 0.00920985
135.205 0.112421 0.00263729
155.246 0.194526 0.00842322
53.2499 0.302881 0.0157198
99.6828 0.111499 1.30465e-05
55.011 0.444181 0.00931292
331.404 2.32406 0.0801571
191.432 1.36634 0.0770005
115.757 0.545736 0.00691602
152.713 0.327572 0.0184188
140.52 0.320338 0.0240101
113.869 0.388261 0.0329301
234.575 1.67733 0.087526
43.1352 0.192156 0.0059286
267.601 2.47842 0.124959
73.5541 0.0572927 0.00415655
19.8486 1.36179 0.0599645
5.3397 3.54665 0.127781
119.239 4.25874 0.235779
46.1582 0.333706 0.00934411
217.61 2.1173 0.125181
57.5939 0.0139353 0.00643848
45.6735 2.21898 0.142833
155.645 1.54239 0.0539225
81.8174 0.147581 0.0209754
39.5587 0.713489 0.0531683
46.8395 0.38372 0.0388259
88.3106 0.222422 0.030032
38.0021 0.128659 0.00321229
27.6931 0.29905 0.0178148
16.8727 1.33579 0.0908327
202.252 2.82191 0.197054
39.6118 0.947343 0.0898812
32.3137 1.14802 0.0374145
98.7871 0.682203 0.0704481
6.30356 1.94167 0.125372
31.2708 0.352478 0.0416967
60.4246 0.0582101 0.0213399
20.5923 1.32236 0.0600322
77.2387 0.589317 0.0170254
35.799 0.248103 0.010125
137.431 1.77629 0.150701
155.265 2.57759 0.171646
56.2679 0.153722 0.0149629
34.4441 0.84141 0.0909728
8.94233 0.971695 0.0599999
51.7433 1.76 0.0790219
36.4573 0.0573243 0.00162981
29.4617 0.824417 0.0405444
63.0318 0.118233 0.0149205
79.5436 0.657186 0.0371691
106.313 1.33928 0.115411
55.6226 1.07311 0.129152
83.0743 0.822875 0.0823516
30.6216 0.449484 0.0125685
16.7036 1.15474 0.067016
86.0201 1.16268 0.105935
50.9404 1.73851 0.172819
36.0345 3.03916 0.328084
41.4523 0.0968109 0.0398227
32.005 0.9873 0.0418742
16.2096 0.316676 0.0203733
13.6715 0.503694 0.0436179
55.5149 1.17936 0.0796608
73.1237 1.04944 0.131954
29.8896 0.138752 0.0326748
61.7006 0.668705 0.0975279
2.40882 2.77316 0.235509
15.9716 1.88971 0.225972
25.506 1.42798 0.228493
16.0896 3.13172 0.269716
52.7721 0.346134 0.0601555
38.2092 0.0770958 0.00511869
16.1947 0.287646 0.0458756
39.2084 0.16603 0.0583627
61.6528 2.2579 0.159143
34.2124 0.129991 0.00349602
43.625 0.205766 0.023348
29.7593 0.366993 0.0135602
25.5997 0.565802 0.0391788
115.508 3.60874 0.455242
43.7356 1.48896 0.127233
19.48 0.930527 0.0692438
47.1111 0.539572 0.0732831
36.9035 2.33928 0.250166
11.3156 0.611437 0.0623161
7.18123 1.1265 0.155801
33.8432 0.0607549 0.0183207
26.1455 0.0793601 0.00145774
32.0107 5.24436 0.615374
82.9497 2.10164 0.266539
31.019 0.391921 0.0445143
28.0391 0.0577033 0.0104093
31.5042 0.117786 0.0255882
25.9714 0.0542779 0.0229715
3.8188 1.20612 0.166938
75.0859 2.2264 0.338938
62.1247 2.21545 0.465668
11.2747 0.634698 0.023694
4.58803 2.39858 0.277807
47.3758 0.904307 0.1542
1.40848 2.30372 0.287599
39.6757 0.912273 0.116331
21.6286 0.0646028 0.0172276
6.33205 2.31684 0.364451
13.3413 0.325031 0.0359481
19.6015 0.445004 0.0429362
26.613 0.126737 0.0439398
35.9191 0.545232 0.0715621
13.0603 1.73496 0.22855
69.4852 2.54578 0.412058
40.9572 1.35379 0.275852
6.11478 1.30939 0.126657
3.60757 1.46121 0.198724
30.9406 2.46721 0.394352
18.2362 0.123379 0.0257056
15.74 0.212757 0.0152245
16.8685 1.49072 0.221492
11.3048 0.557652 0.0956026
23.201 0.104133 0.0162214
24.4268 0.696011 0.128881
12.6607 0.399805 0.0762353
4.10894 1.00704 0.192912
22.4183 0.596724 0.0979831
19.3534 0.070772 0.014267
38.6538 2.2069 0.511651
39.7775 2.07565 0.366144
0.556983 2.28801 0.423643
30.0344 0.266752 0.0428909
22.898 0.941128 0.158469
34.1131 1.30877 0.284725
32.4214 0.667457 0.168248
6.53795 0.505667 0.125633
64.5914 4.1666 0.826098
14.9095 2.01399 0.412159
28.1005 0.676697 0.18351
15.014 0.964191 0.276783
43.624 1.7709 0.427559
15.1947 0.0833742 0.0328208
19.0259 1.10245 0.244294
2.48688 1.66989 0.336203
16.4459 0.419793 0.0526157
12.0944 1.62912 0.342425
22.9305 0.574652 0.13261
38.5917 2.394 0.648036
15.5172 0.107344 0.0838848
6.94786 0.464668 0.0587576
12.6997 0.0263139 0.00924855
5.89799 1.15477 0.260624
3.77884 1.37214 0.394137
47.6985 3.73193 0.833112
33.8947 2.56594 0.816614
21.4896 0.464177 0.0833461
14.7933 0.110881 0.0607629
36.1244 1.74875 0.54356
8.68246 0.171777 0.0973624
4.57204 0.744036 0.127185
26.0305 2.05923 0.463412
12.7049 0.0194716 0.00547774
22.2234 0.422279 0.134704
24.858 1.49448 0.564171
15.6134 5.53356 1.33371
5.83115 0.461348 0.166305
32.0782 1.21905 0.300314
15.9526 0.190625 0.0976963
11.9349 0.151389 0.0358626
12.6768 0.0423495 0.0317322
4.60183 1.38868 0.404612
28.76 1.12061 0.347721
23.2634 0.809832 0.294834
11.8974 0.305115 0.0933971
2.44453 1.86964 0.491475
24.3419 0.643496 0.174091
24.6833 4.14687 1.35107
27.4721 1.15031 0.358176
34.2173 3.45143 1.16823
3.79938 0.527707 0.084189
8.43846 0.201011 0.0895822
7.29736 0.0525101 0.00456157
12.8049 0.267033 0.277117
10.9975 10.7046 2.88396
10.2701 0.360458 0.140301
17.4591 1.65453 0.510177
14.5229 0.14485 0.0495127
8.54131 0.473492 0.138938
12.0743 0.0505579 0.014069
21.1117 1.64027 0.580223
12.9883 0.161789 0.107643
14.9943 3.44865 1.19179
8.44156 0.254843 0.187649
13.4222 0.188155 0.141975
7.11334 0.66667 0.375504
4.60039 1.3027 0.283651
11.8404 0.0394636 0.035449
14.7109 0.268805 0.144602
12.3279 0.98089 0.316193
3.06731 0.523265 0.109579
4.18226 0.531474 0.12314
5.98968 0.245451 0.107759
20.2793 5.30001 1.88519
3.95464 0.481607 0.178249
13.1548 0.190161 0.115085
1.74453 2.3433 1.01575
26.4417 1.47592 0.575532
16.4135 1.12104 0.341918
2.02357 1.35699 0.380891
21.1377 2.0761 0.746926
4.12752 0.997275 0.403352
4.26426 0.392098 0.148644
7.0445 0.14505 0.0966286
24.1062 3.0882 0.852348
27.3088 4.76357 2.03215
2.87551 0.627578 0.265037
9.05515 0.393477 0.262838
3.13644 1.11101 0.521077
26.2513 3.10019 1.15926
32.9599 3.56734 1.46913
18.7274 2.17073 1.37744
1.28125 2.38941 1.18925
16.1977 0.378856 0.252974
46.8972 8.86079 3.5687
5.21775 1.27309 0.557382
0.782724 1.02807 0.1878
11.8583 6.63594 2.98649
12.4958 1.00892 0.174039
12.7606 0.519595 0.234931
4.38924 0.464079 0.201152
12.0689 0.348859 0.235634
0.409321 2.34354 0.959777
28.8516 5.95284 2.94828
6.60094 0.137424 0.0332467
12.886 1.5235 0.341225
7.55693 0.827599 0.282769
25.554 2.67748 1.1252
13.9311 1.17351 0.804856
3.46279 0.182905 0.0620694
3.53057 0.163497 0.0174332
5.38597 0.0439783 0.00901729
17.8266 1.82684 1.17003
4.42494 0.122562 0.0796011
5.2916 4.77864 1.55071
9.25045 4.95666 2.63117
3.93563 1.05982 1.09536
23.777 2.68051 1.02286
4.0964 5.65892 2.55201
26.6683 2.77689 1.18639
3.52849 0.323482 0.166238
10.1544 0.1688 0.0547699
13.2098 0.677048 0.389636
17.8878 2.30375 1.71576
1.0506 0.401899 0.0341556
0.316931 2.97921 1.21127
5.86724 0.405659 0.461664
9.30836 0.492265 0.0884573
2.56304 0.483224 0.280971
19.3388 5.99805 2.63264
5.98758 0.0382378 0.0597551
24.7889 3.55666 2.00188
5.76612 0.293703 0.227806
6.86819 1.58663 1.07435
0.727445 2.33502 0.710156
4.8963 1.08443 0.542235
3.26521 0.865057 0.392488
5.21388 0.502579 0.290818
19.484 2.93206 1.99366
0.757561 3.72514 1.75068
16.2745 1.61638 0.627781
22.6033 3.81561 2.58634
0.390625 2.00351 0.685095
11.0014 0.522847 0.372915
5.88276 0.0982807 0.220897
3.32974 0.646333 0.344962
2.52375 0.649514 0.13531
0.18693 3.75307 1.61302
1.091 1.72703 1.10113
5.42088 2.11978 1.59804
7.95917 0.176542 0.284494
19.8786 1.88945 0.813387
20.0364 2.74066 1.24621
12.6094 2.06291 1.42652
25.584 5.21492 3.26809
13.9408 7.16434 4.69399
12.7409 4.87696 2.59797
7.66656 1.49052 0.590888
5.90056 0.140572 0.0940305
13.5794 1.37238 0.861794
17.8779 5.19532 4.48758
5.50912 0.459665 0.56183
6.44319 4.02636 1.69778
6.77338 0.359611 0.634013
2.56619 0.611356 0.230972
3.94531 1.14057 0.722955
3.25944 3.52727 2.35017
0.90251 1.18083 0.258462
1.96955 1.11818 0.187813
0.728387 6.15883 3.19771
4.38438 0.211428 0.200324
8.50423 1.76795 1.27721
0.807228 1.59284 0.687898
4.81304 2.6264 2.2062
8.33034 0.587328 0.0994274
5.42507 0.1025 0.0327965
9.78203 1.36195 1.75802
0.955481 3.02786 0.908662
1.98543 0.906304 0.2476
2.75684 2.83402 1.57604
1.99807 0.648406 0.436128
4.5319 1.2101 0.948079
4.54639 1.56635 0.981721
14.5697 2.02944 1.67296
1.17942 2.68074 1.42887
5.47388 0.440707 0.151333
2.87877 1.09525 0.791395
1.89588 3.21019 1.91688
2.70008 1.01207 1.25862
21.4881 4.21871 2.60185
3.03063 0.0686827 0.173046
6.01702 0.557653 0.495118
1.10798 3.80789 2.19716
2.69725 1.04008 0.73586
6.04102 0.362225 0.371427
12.9811 1.62309 1.06603
5.75579 0.423729 0.716241
1.80859 0.124276 0.013806
1.80242 0.249873 0.513932
6.11038 9.76209 5.2087
4.01005 1.12905 0.861136
0.710437 2.49551 1.74701
0.222791 6.96605 6.503
16.3364 1.39649 0.447237
3.80906 0.747308 0.612139
0.476975 3.30397 3.6745
21.8883 3.90426 2.14054
1.42767 1.27555 1.59301
16.1996 2.43234 1.88693
6.16709 1.84191 0.957364
12.031 1.03329 0.518032
15.459 3.31287 2.3764
4.27297 2.68102 2.14004
15.3058 3.46703 2.77731
4.6312 1.1205 0.794723
5.74715 0.805167 1.32623
7.11265 4.04409 3.23084
12.8792 3.91829 3.0155
4.47679 0.989883 2.25617
0.45279 1.15116 0.217152
5.85174 7.7998 4.77499
3.03481 0.430584 0.347028
10.9491 2.58316 3.20296
1.60363 6.67775 3.21327
6.45653 7.22614 5.88831
0.884394 2.18179 3.06484
12.0682 1.98358 0.885532
1.12179 1.53248 1.4324
8.75009 2.18557 1.74868
2.26186 0.388544 0.296011
4.03269 0.172849 0.328644
5.48317 0.342966 0.195232
5.48298 0.160966 0.128651
3.57475 1.69424 1.72376
3.13514 0.514128 0.44657
11.8696 2.2316 2.11472
1.50242 3.41697 2.88556
13.7024 2.79001 2.78344
2.25799 2.53156 1.66192
1.16973 2.66659 2.0347
4.77904 1.35124 1.67165
20.3431 6.37441 5.02374
3.99459 1.00486 1.96435
6.51052 0.605913 1.1141
4.81945 0.965175 0.933435
0.472943 0.986134 0.149768
0.118042 2.58582 1.77164
3.80615 0.109333 0.143526
0.575587 1.72718 1.60037
3.32064 0.344011 0.882948
12.2764 4.37952 4.53365
13.9516 2.84723 2.43961
4.14962 0.210482 0.0386368
10.1711 2.39704 2.69396
1.64239 0.171252 0.0290727
3.36919 0.603901 0.141111
7.59613 1.65529 2.29983
1.56917 1.57661 0.654009
2.32814 0.195196 0.265994
1.55115 2.49067 1.82366
2.68387 0.0238138 0.135113
0.431088 1.95219 1.45985
4.13681 1.36261 1.06746
0.132454 2.89615 2.31384
7.07055 0.819759 1.07423
2.65678 0.23999 0.604326
0.692944 6.27053 4.21914
2.31117 1.3507 1.47124
3.63991 0.162283 0.282539
8.06863 1.3027 1.81067
0.506643 2.0403 1.17128
4.80445 0.876422 2.40219
9.2883 17.1179 15.4773
7.12635 1.5381 0.876497
5.46719 3.56157 4.80513
0.411063 3.12556 3.98851
8.95284 7.83666 5.42842
7.43373 0.936442 0.226303
6.06001 3.89403 2.98527
1.61339 1.41435 1.53042
6.59831 2.95345 3.22292
3.30346 0.368821 0.797961
7.46175 2.60291 4.52787
0.807718 2.21442 1.07784
0.47895 2.01221 2.74507
2.8868 2.94529 3.39967
14.6869 10.7385 10.885
11.9354 1.97496 1.6242
5.79206 0.866514 1.05942
1.45154 1.29923 2.01154
3.64487 1.80169 0.772982
0.298743 2.37514 2.78684
5.55206 0.328661 0.119444
9.04049 4.26975 3.58624
3.27627 1.61655 2.68675
0.805142 1.36055 2.2189
9.17429 1.57521 1.78852
1.16092 0.671443 0.0997012
2.28253 1.87434 1.93293
1.86332 10.1859 10.9167
7.13522 1.6733 2.90453
1.9071 2.21168 4.94034
18.0798 5.27251 3.09817
2.7469 0.0366247 0.0866016
4.51747 0.179904 0.287984
3.83107 0.0416204 0.584015
7.51741 7.02751 7.4757
15.7535 6.18027 7.37865
0.178397 2.54396 1.9435
5.03148 0.977302 0.971206
5.5844 0.766678 1.48656
3.83667 1.02795 0.787096
0.959941 2.48184 1.6914
1.19691 1.53757 1.68344
0.0769019 4.72219 7.66492
9.13918 1.21042 0.459414
3.5417 0.365046 0.686057
3.25945 0.256483 0.766619
5.22007 0.110995 0.268013
7.65764 1.06878 0.838163
4.30909 0.14609 0.449092
5.66442 0.387011 0.616209
5.9783 3.30189 2.4428
8.40138 2.5614 2.82994
1.36236 0.98696 1.6727
4.03443 0.171892 0.0537647
3.8264 0.0165385 0.0198199
5.06929 0.412313 0.450628
2.61641 0.259201 0.511046
8.04221 1.1515 0.527758
6.52431 1.84862 1.35166
3.33057 0.764444 0.824426
14.8469 8.63935 10.205
6.94221 2.9031 4.17502
4.92016 2.8482 5.98884
0.70272 1.59123 1.83754
1.38752 0.402437 1.44268
3.63429 11.8311 17.5028
2.59568 0.479118 3.04304
8.30931 6.95285 3.526
3.54871 1.01032 1.21239
0.139156 3.78982 2.63936
0.474757 7.22326 11.2106
6.47085 0.32902 0.472871
3.10927 0.799036 2.60901
10.4074 2.01751 1.26656
5.08388 0.435615 0.618194
5.22306 1.17805 1.32394
0.100537 2.98298 4.91721
9.92249 1.88136 0.697337
5.22884 1.619 1.8996
3.73632 0.148547 0.207001
3.86943 0.699179 0.947999
0.394268 2.11304 4.0879
9.22618 1.06048 0.410563
19.406 14.0658 17.9639
0.393139 0.336196 0.619368
3.40502 0.20582 0.642677
2.53878 1.11564 4.83393
22.802 18.2257 23.9168
0.631615 0.687896 5.69682
1.86005 6.46625 2.5385
2.34851 4.58078 4.22808
0.36628 2.47186 2.06242
1.09355 1.00651 1.33455
0.562223 2.90528 5.7525
7.80202 1.01994 0.12676
8.23921 4.0611 6.26379
0.275981 5.05255 4.66081
0.946459 2.50295 6.86658
13.3725 6.16845 6.92828
0.382173 2.48834 8.64188
13.4647 17.701 24.0064
26.6566 13.5217 10.3766
6.78237 4.42839 4.49914
4.76173 8.0342 11.0892
5.70534 2.96164 6.97174
2.20511 0.421631 3.41695
1.05519 1.22844 0.64018
1.68814 1.3074 2.56169
10.0658 4.51457 6.08719
1.60869 0.00415612 0.3194
1.18878 0.349759 1.27614
4.31378 0.950545 0.5731
1.26456 1.07225 1.92034
6.41693 1.63759 1.57635
3.94557 0.795923 1.77034
1.14761 0.0857844 0.049291
1.75105 2.80745 5.84503
11.2092 4.94673 5.8368
2.12908 2.27906 5.98475
4.23671 1.31564 2.04558
0.440431 0.441105 0.81762
1.97681 0.0235832 0.434237
0.812129 0.522852 1.34977
4.35774 0.681813 1.81662
2.78927 4.76049 3.03593
1.35546 1.08289 2.62836
9.05683 3.28843 1.95947
4.60027 3.17615 3.54787
1.31481 3.71138 5.66805
6.04498 2.16617 4.62594
6.4065 3.14257 3.31062
11.406 10.1177 18.3213
2.11075 3.51507 17.0403
3.35233 7.43819 3.79084
1.4862 10.8186 10.6355
2.35628 0.0648536 0.274967
0.21966 6.07628 5.9017
0.93608 1.13382 1.14757
0.0228 9.43832 20.3499
12.119 6.56255 13.06
13.4225 5.71561 3.00645
6.77311 4.23729 8.73525
0.278725 0.289124 0.720404
5.0894 9.68027 16.447
4.32137 1.5906 0.335172
2.45787 2.6864 4.89487
0.918846 3.01953 2.56225
0.981776 5.92575 6.38046
1.70581 2.47801 4.88051
1.67597 1.33493 5.51808
7.52854 0.78878 0.0310122
5.84439 1.67416 1.38782
4.51084 1.65305 2.99591
1.92909 3.33382 9.47194
3.12212 4.08018 3.95143
3.43011 5.89196 14.0263
9.61974 8.26253 10.0832
4.86179 4.68491 8.60938
1.54449 1.23102 0.262973
0.864931 2.11184 3.75217
7.74613 4.02153 6.12437
0.0531445 3.56584 4.51564
2.21052 0.78095 1.40475
2.61564 0.301794 1.98231
5.30075 3.84347 4.53015
3.15513 0.478282 1.67462
0.0753482 5.84137 13.0706
7.468 0.637933 0.338891
10.2857 6.29483 6.95916
1.81418 0.980357 2.95333
0.954098 0.217282 0.320617
0.0951139 2.44462 3.63235
3.19189 0.152073 2.19775
7.41302 7.30188 9.98079
9.91571 8.72168 20.8245
3.11915 14.0859 22.4311
8.07275 6.0276 5.79525
2.11443 0.136906 0.216324
2.14348 2.33262 6.31687
4.24015 3.3165 3.23248
2.16196 0.192723 1.78901
8.22909 5.93339 8.4945
4.51837 1.82004 3.52404
0.961696 0.481759 1.00164
0.716106 0.524744 1.03687
2.618 0.233994 0.362326
1.96719 0.467748 1.33184
0.330624 1.23822 1.72548
3.76353 0.94812 1.26534
1.61244 2.23861 6.8755
0.91539 7.44735 18.5502
15.3024 7.86656 5.40781
5.67979 4.00473 8.31451
1.78854 1.65826 4.61763
0.129409 1.47095 3.10186
5.62571 2.62721 4.27766
2.90094 3.6891 17.3073
0.993774 1.29502 1.82313
2.76558 13.6529 14.3684
2.85909 0.501941 1.17748
0.307408 0.885371 0.614669
0.851745 10.5512 11.6897
1.02354 1.80731 3.37479
1.03275 3.36871 9.30433
4.52332 4.18005 7.1223
4.23518 0.61246 2.06945
2.36497 1.70396 2.95736
1.20877 1.70235 0.628189
1.54405 13.4999 31.227
6.81738 0.270372 1.87509
5.73977 1.16334 0.520564
1.67917 6.36224 14.3124
5.29483 2.83505 6.37773
7.10929 4.2857 13.2383
4.67816 2.74357 5.80148
11.7072 7.74005 5.22729
9.24291 7.70264 9.5001
2.27761 2.37106 6.081
4.04206 2.80821 11.1651
5.44575 4.4177 7.47614
0.103663 5.3685 10.2244
8.97021 6.96354 19.7005
9.44538 16.8415 23.3011
3.98899 0.230229 1.79389
6.01941 4.93372 6.00293
2.4175 0.806638 2.21102
4.45326 4.32226 14.831
0.916149 0.272879 2.59388
0.47795 1.66697 0.151142
0.666184 0.523157 2.1181
4.93318 6.70127 5.30915
1.99907 15.0777 31.8604
4.58787 4.2006 4.95218
3.19754 0.10867 0.119858
0.977359 0.375129 1.40086
1.88027 1.83215 1.09826
0.357479 3.71903 8.47928
6.50917 7.09355 16.5354
5.01278 3.14824 5.27796
3.17301 7.20238 13.7279
1.53183 1.0374 2.25206
1.5245 3.7059 9.94667
4.78608 0.456207 0.769387
2.17365 2.64451 14.0652
11.3884 5.71493 3.36025
2.33349 0.843062 3.47725
4.20969 0.218812 3.68563
14.814 22.4152 34.2517
2.7253 1.12438 6.73789
2.7134 1.385 2.56294
1.11236 0.764466 7.34945
3.20006 13.2735 20.6123
1.57034 3.77998 12.3769
7.45973 1.80812 1.32769
5.28896 3.78838 9.07396
2.0315 0.0743454 1.51134
2.69121 0.51801 3.39977
2.44233 2.74756 3.07598
1.58765 0.954933 4.02842
1.32441 3.75598 5.56788
2.92564 1.66705 5.71011
2.3336 1.86145 6.27348
8.64758 5.18783 5.49433
6.93258 7.53939 18.7416
0.194675 2.21602 1.44943
1.50599 0.305366 0.727381
1.39749 0.580413 1.56662
3.41034 1.27112 3.22146
1.1838 1.29866 2.01903
3.37763 3.02722 12.3893
7.69252 8.9828 15.6722
10.9328 12.3906 25.8298
0.681959 3.48321 3.63174
3.2106 0.732688 1.12884
2.37496 0.896867 2.61555
0.897714 1.49219 9.30858
8.163 7.77103 11.3297
1.93203 2.4013 10.3991
1.40654 1.50797 0.869839
0.977205 0.119284 0.499271
1.8713 2.08356 11.3888
0.88969 8.15857 11.5372
6.0759 10.5825 24.7998
2.49226 0.230455 1.89502
1.6805 2.97422 2.30523
1.02017 4.52071 20.2696
6.97992 5.02905 0.395562
5.69279 11.7875 12.8849
4.09739 7.06551 14.6528
1.75414 2.33436 10.2674
0.0074341 4.92477 14.2431
3.85796 1.28173 9.42339
2.92778 1.05597 2.14857
0.0157503 4.71666 7.52619
1.09091 3.21489 17.999
9.02759 5.81911 21.6099
6.62366 8.33074 6.78529
4.06615 1.57876 3.71241
1.11997 1.1454 0.793854
1.82319 0.0196506 1.13446
6.35298 8.85362 31.7507
2.82319 16.2221 23.2054
4.61686 0.482959 0.181831
0.817328 0.441408 1.05198
1.45746 4.67561 13.6176
9.3298 10.3884 19.3284
0.124217 7.75685 42.4487
13.0452 8.35413 3.92687
2.53012 3.5239 22.6922
5.14314 6.08917 1.36493
5.01993 12.4836 27.7297
5.06171 3.97478 6.68247
0.715049 2.49778 4.9303
2.79906 3.16882 16.533
8.82127 6.89655 8.04653
0.0690126 2.53593 5.93758
2.54593 0.773578 14.385
12.965 9.25622 3.67236
6.63162 10.6869 24.5928
0.318097 0.110186 2.25
1.65672 1.86343 2.56274
5.25577 4.53345 4.94547
5.06926 11.2378 40.7276
3.3071 2.35636 9.10653
16.5745 30.3416 70.8298
1.7305 6.31958 6.20026
5.06159 4.2426 10.5039
0.444659 1.42884 11.5864
2.20417 2.75913 2.41654
2.81238 3.2739 15.628
0.165532 2.10765 2.40026
2.56707 1.64126 9.85265
1.5348 12.3262 36.2119
3.72439 0.343175 5.94751
3.82478 1.98712 0.248138
2.80996 1.93785 9.01192
1.15629 6.25267 6.07009
3.09226 1.70009 0.0996937
1.24179 1.11941 1.85186
4.25436 2.60247 5.11437
0.743749 1.89306 1.32742
3.69348 2.58016 10.9334
2.27896 8.35429 5.21633
1.48795 1.75483 1.84671
3.86071 4.65882 4.62319
3.42879 3.43714 10.5011
2.27023 11.6076 23.136
1.40011 0.127432 5.96066
0.195135 5.76088 7.18621
1.35895 0.61056 1.6
1.7461 3.27888 17.1634
6.5384 3.93213 2.74937
2.98192 9.04052 12.7078
2.48843 3.29998 18.7766
2.26786 9.60994 22.3237
4.53529 3.18267 0.208824
2.40032 1.94795 2.25359
2.95506 12.4206 10.8114
2.76289 18.533 62.2234
4.70313 7.46471 13.2671
3.78407 5.87483 19.3438
4.32354 1.62583 13.5325
5.61206 1.20448 2.75858
7.44003 10.0909 25.7024
1.11336 2.15258 2.90395
1.17723 1.19233 6.57856
2.34076 2.92245 6.66612
1.53528 2.3654 14.7935
1.16118 4.97052 5.63098
1.63003 0.915688 4.8622
1.03018 4.17164 12.9036
1.02417 5.43565 9.135
3.75381 2.79627 0.949354
1.44805 3.54928 6.82593
0.155839 2.66777 6.68772
2.31495 0.267497 1.51143
3.58715 2.79151 7.87136
1.07453 7.11587 22.8916
2.84072 7.10652 17.206
4.97447 6.9746 9.73072
0.217225 3.65199 7.87288
0.440221 1.2816 11.9969
0.6834 7.67876 9.15548
1.15136 6.11758 14.7399
4.86421 9.06085 24.5355
1.00694 11.5731 15.2087
0.412908 6.68054 22.9325
1.9115 4.98415 23.9518
4.28912 0.626132 19.3344
11.8606 13.0978 29.3314
1.26225 11.7264 31.049
2.97729 25.6061 78.7427
9.48503 0.735208 26.9194
10.5506 2.47648 16.4947
13.4459 16.767 8.48184
2.3352 6.62735 11.5287
4.32707 4.42297 14.7111
0.936976 3.15921 1.08367
2.17433 3.82191 4.80481
2.01951 2.30354 11.0527
0.236416 8.00549 15.0236
3.14672 1.27543 3.82042
2.21596 0.553778 1.40951
0.311802 6.24122 27.8097
5.51318 3.12006 9.36467
5.80285 4.9744 13.2781
3.53506 2.01378 1.49917
1.74782 6.16174 24.4887
2.47781 10.8521 19.52
3.42149 4.28083 27.2041
8.10661 2.52803 1.34655
6.74739 8.06944 15.0443
1.17389 2.22912 10.8523
0.994996 7.21432 16.5345
3.73898 0.346056 4.26095
3.17177 6.04334 14.231
2.61412 1.23633 3.22044
4.21243 2.89614 6.95381
0.0754483 2.00025 5.6305
2.83879 0.108898 1.01424
3.13815 2.05109 9.93919
1.43269 1.41317 0.631473
1.18355 10.6049 25.4495
3.05096 0.804172 7.21445
3.688 0.0275399 3.62268
4.58259 1.41679 1.66345
2.54325 0.74596 0.460416
2.94381 2.89688 9.32197
4.74604 2.49545 2.31308
0.690655 1.34883 17.0507
10.5173 10.673 8.91933
1.35429 0.222874 4.72655
12.953 33.229 77.5452
1.33439 5.73791 37.6341
0.329658 0.0397234 25.5183
3.28201 19.4094 35.3657
5.41278 6.93561 29.8825
2.90349 19.5352 36.1621
3.65377 1.95616 0.546925
0.514195 6.17119 26.6733
7.16809 2.96864 3.36838
2.0904 0.904508 0.0847937
2.17833 8.05173 45.9166
9.08729 9.65338 4.80644
2.42602 9.05106 31.796
0.350411 4.7378 9.6898
0.795058 1.75287 2.63859
1.31269 4.38152 8.1603
0.823374 2.36403 12.2701
4.53653 7.86374 16.6932
1.3199 3.29071 16.3144
6.1609 7.56729 16.0386
0.131232 5.65002 24.0017
3.42968 4.32643 22.0034
5.43166 1.66421 21.2346
9.75987 8.23333 19.7993
5.29854 3.2108 4.29424
3.31068 5.80466 11.9764
6.59322 6.47173 6.75901
3.47656 5.60339 23.1516
5.00638 11.7645 31.0398
2.03787 15.861 31.3681
2.05581 1.01061 18.3832
2.46245 8.93898 25.3979
3.29233 9.24566 13.1893
2.1484 0.119625 2.20529
0.537959 8.70541 22.7451
5.43567 9.94767 37.5211
5.63384 2.11718 11.5227
2.18807 8.73042 31.0807
7.86634 13.8116 44.9804
6.31834 4.18516 0.114286
2.60484 4.40518 15.7072
3.29289 4.76081 7.34098
1.04483 1.02256 11.7354
3.91908 0.678363 3.87891
5.08495 4.4785 17.6249
3.63911 6.07402 12.4734
6.60883 5.09141 0.885686
3.42435 5.20116 7.37271
1.09324 0.239373 4.81509
7.78162 17.466 47.5497
1.91739 2.00262 0.544399
3.5209 4.64982 8.18391
0.831639 0.245162 0.0159849
3.69904 6.68873 14.0458
1.00317 2.34152 15.934
3.62576 12.0112 42.0202
0.456031 0.351648 5.45644
0.082209 1.07934 2.46834
2.37272 6.65443 35.1682
5.24946 8.81481 11.3344
0.603172 0.914431 7.63799
1.26544 6.79636 41.6942
1.18145 4.38505 0.996032
1.24135 1.6012 20.3917
2.39279 8.00839 7.90177
0.122424 2.71595 6.96469
0.832819 0.158828 0.154712
0.659786 1.85847 6.80206
0.327825 1.71081 2.12543
1.31389 0.161503 2.48177
3.67842 6.35491 12.6702
1.68154 28.8515 127.13
7.30048 3.98378 21.6707
5.33688 1.73716 7.47484
4.12992 4.25219 2.70874
3.45215 16.8876 31.0761
7.46451 15.4907 45.5199
3.47898 8.36595 46.0315
1.65748 8.2539 7.60552
2.96115 4.17279 26.3161
1.00654 5.9866 9.0611
2.01177 1.34354 25.3435
2.37456 16.8915 17.8587
1.84397 3.2823 17.5327
2.86347 1.69364 2.11884
2.08052 2.20457 18.1395
0.527361 5.3752 4.14533
0.00389186 9.83954 31.9281
3.65568 5.14158 12.5724
3.28609 0.245511 0.614254
0.523506 3.67685 23.0024
7.14234 6.20435 9.31409
0.515253 4.33137 40.1011
5.53866 15.697 15.1196
1.88417 3.82628 21.9298
1.06437 4.68537 9.99132
2.40298 3.36881 11.5649
2.26911 0.585974 11.9762
6.49303 21.9579 86.6892
6.056 7.71594 20.131
7.74786 14.5945 23.0457
0.964145 0.304362 2.97104
0.205576 8.16403 68.2914
13.0134 15.0325 12.5684
1.43653 1.43424 15.975
4.30221 9.0822 9.08231
3.23534 4.89649 6.95741
1.1684 6.59042 39.4659
5.35765 2.09882 5.69951
1.52508 0.353077 16.7425
3.97809 5.25246 3.92366
1.5016 1.35266 31.5444
10.9014 13.751 4.52802
3.0138 9.98005 39.567
2.8796 10.3593 15.3622
3.1518 4.87349 13.8368
2.57814 12.5391 42.6553
0.169585 1.4909 17.173
0.447551 5.8558 38.7435
9.99954 18.1679 28.5434
0.0974923 2.67031 22.9121
0.56554 0.551753 3.26458
0.229668 2.09104 24.6404
2.73913 16.6821 44.448
6.37023 4.75187 3.30675
0.825043 2.13548 10.9486
1.81489 2.09716 11.4709
2.71671 17.5439 74.0752
6.30964 3.22156 0.516106
3.39486 7.99351 43.8437
2.68096 2.14771 42.9068
7.30853 29.862 34.6254
0.757457 1.06724 6.06641
0.637335 7.17022 43.4619
0.839637 3.10556 8.28805
0.725532 4.76732 19.4991
2.85104 12.6248 14.59
1.30466 0.188725 0.490407
1.857 9.03337 23.2791
0.630601 1.55279 19.1046
1.1686 1.52622 0.359411
1.03926 1.2669 9.17364
0.698247 0.0239296 3.00161
0.226584 0.546053 6.57888
0.856432 0.795595 12.679
0.43088 8.14734 9.3162
1.14824 0.535684 0.643599
0.999738 2.10215 24.2432
2.14817 6.83462 15.6675
1.57684 9.48366 23.8022
1.14624 12.1718 30.1289
3.87712 2.27217 7.58625
2.25863 5.04503 30.6342
2.86992 9.13895 24.3681
4.92288 3.38545 15.1422
4.22473 7.15232 22.4199
2.2741 4.46585 18.2917
0.663326 3.50252 2.55898
0.0371238 7.11826 30.8193
3.31288 11.2688 37.1444
6.51991 4.31773 7.37476
1.04002 0.701825 5.10338
2.39448 0.0627851 7.23963
4.49607 4.47728 6.90611
0.479047 0.020124 4.04879
1.56351 4.59494 12.6906
0.240162 3.32082 7.34618
2.45458 10.9694 44.0253
6.44256 6.68614 25.6314
1.10506 0.477201 33.3035
2.85038 12.0643 50.3953
10.2418 12.056 26.247
2.20014 14.735 37.251
7.78715 19.1206 83.9737
2.73898 17.2623 45.086
6.63858 8.19822 7.60666
0.939587 0.266351 1.02892
1.9232 2.05209 5.82673
0.488697 1.7646 29.1216
0.5897 6.32852 2.24694
0.665906 1.64758 7.07072
3.13 3.49731 24.4872
0.389332 6.87376 6.52304
1.06469 2.59833 3.65251
1.1731 2.3574 12.2955
2.79457 0.18812 15.5376
5.43364 6.75831 9.83495
1.21705 0.000179257 6.80072
5.17946 13.8992 45.0079
0.20678 0.290533 11.3309
0.0814362 3.50354 2.92698
1.54545 0.578126 8.81569
0.777224 10.1566 30.4294
1.71107 2.83226 5.90231
2.35666 0.899419 3.88172
0.337653 5.25571 43.4261
2.34925 2.62837 1.56338
0.0457739 5.50026 75.7478
6.8517 32.4977 37.1986
3.8359 11.7367 18.2998
1.27594 9.98005 73.5816
9.29485 0.790938 17.0913
5.36224 0.982316 16.5025
7.68741 20.9658 143.13
11.4069 55.7405 83.2594
9.10856 14.5944 11.5747
1.63708 10.7145 40.8103
4.61528 4.37013 15.5499
0.00517905 4.44831 16.2474
0.563615 10.2615 30.7504
3.65034 1.55903 24.2231
4.69692 0.608452 9.96547
3.29299 3.9147 67.2458
13.1792 18.9749 14.7664
0.585198 0.830254 8.20288
2.1484 0.687841 1.62808
2.1489 1.2186 2.56339
2.90728 9.38224 63.6638
2.68895 13.0919 9.73827
1.99034 4.96588 26.2624
3.95884 0.429484 6.3502
2.44865 2.63224 15.5909
5.60993 7.34843 9.92262
0.598647 1.62524 2.76388
1.10681 0.718872 19.2263
5.42933 4.41282 10.5994
5.62976 11.5291 15.2336
1.40031 3.05929 31.5168
5.02335 17.6514 24.9371
0.292323 0.0666363 6.72255
4.78754 16.3819 20.6966
1.27242 11.6091 69.8937
1.38476 7.50764 23.235
0.233566 4.131 9.16841
3.51844 12.7987 50.661
0.848926 0.541599 19.4256
0.154704 6.45572 57.9073
4.71727 2.18863 5.47023
2.31787 0.536417 20.5297
3.77892 5.08679 6.11719
2.24295 12.8001 32.4169
1.13746 3.625 34.8811
1.34104 1.45084 15.536
1.87746 16.1304 31.7562
1.48125 0.674354 22.9825
0.888372 4.49032 26.3687
2.42333 8.55978 6.00581
0.373938 5.12194 15.9311
1.2432 13.5814 201.149
12.1287 35.7831 25.3747
3.48891 1.01894 33.034
3.9422 24.69 22.1092
0.146464 12.3215 43.2405
3.92362 1.95632 0.817431
0.70701 0.349779 32.4783
2.11311 22.0742 32.6076
1.28007 18.3027 42.8446
3.67895 12.3058 64.6512
7.17307 1.01579 45.5223
9.50013 12.0187 14.2416
0.028294 2.48769 15.506
4.06209 2.49233 2.57854
0.374961 2.39456 33.8532
7.85558 15.002 33.4681
0.543884 1.56882 13.0797
4.40157 8.35773 23.2557
0.034665 1.98509 9.85398
3.15447 4.51257 9.13177
0.367785 3.69076 0.125149
0.91099 7.46277 19.3847
3.56206 7.36926 28.6982
0.0618396 7.15269 54.1607
3.71263 6.80721 9.5661
1.56056 11.2368 65.1306
7.41547 4.93801 4.00858
1.62008 5.31405 16.8099
0.713878 1.97338 13.1991
0.372186 0.999326 4.84377
0.315022 5.22435 15.4608
3.64574 3.49538 14.5578
0.006541 3.39766 7.6618
2.11695 0.100218 10.1116
5.2049 26.7415 129.81
5.32224 6.0567 2.65429
0.373233 1.88971 59.3939
2.72322 14.9144 13.5344
2.23226 2.43463 38.1563
0.963685 11.1782 6.84067
1.29328 0.602144 20.7741
1.2918 12.3397 13.8864
2.28275 2.70844 6.10018
1.82099 0.445729 1.02964
1.1156 3.20511 25.1609
3.67229 3.19742 5.83399
2.881 4.71322 10.4747
0.6882 0.890933 15.9315
1.77312 1.25752 7.24294
0.00465967 3.85038 6.83719
1.68202 0.762688 29.584
2.63853 17.5001 61.3523
8.32825 5.69665 0.767195
1.61242 6.74189 52.1821
1.26697 7.63583 0.704689
0.572629 5.51734 38.5164
4.42488 16.5813 48.6964
4.32821 1.66125 0.612473
1.1856 0.805395 3.32454
1.0151 5.55979 44.978
7.11982 4.93523 2.5469
0.661697 1.04486 10.9182
3.47563 3.00904 39.3882
7.71518 18.2172 22.9397
0.0309276 0.588145 5.75217
0.258663 0.112692 0.894997
1.90802 6.79281 21.8685
0.00811563 6.76954 49.2312
2.29932 1.40214 1.84258
1.20287 6.31891 94.6029
6.16971 5.63639 15.2456
3.13186 7.53578 1.56179
1.87286 11.2548 15.6504
0.0232195 7.92166 45.1313
4.5068 8.51172 22.9911
0.790216 3.3261 21.6213
4.7733 7.47315 40.6042
1.11904 9.00979 31.2211
6.30555 13.9656 13.1835
0.471963 3.06416 25.8351
0.0781246 0.532173 22.7224
2.76293 19.5202 34.5219
2.48199 5.17164 39.6186
0.334605 0.566338 59.2988
1.43495 4.6825 32.8524
1.08378 6.73121 16.4473
0.705425 23.3964 8.01439
0.889461 13.1171 26.9114
2.83799 2.84621 21.0091
3.40832 5.72147 23.5896
3.82024 1.4622 7.23932
0.433189 3.57516 3.46798
0.735085 0.96166 9.56804
0.667995 6.15723 14.8115
2.87299 6.98499 19.4492
2.98313 0.762566 9.38141
1.95214 1.74771 22.651
0.25215 4.5045 77.6371
6.59099 22.5874 1.70639
0.260116 20.3608 55.3691
5.51607 0.222232 0.633383
0.663588 4.05144 0.594512
0.798918 21.6819 138.582
10.9833 10.2667 14.6484
3.61998 2.67744 11.3187
2.51314 2.33477 9.9456
1.29645 3.1749 8.15579
1.42415 1.32181 2.05665
0.937325 7.44167 72.6857
8.69922 13.1075 38.013
6.06449 5.69442 0.231115
1.81301 11.3745 44.5491
2.00433 1.90684 41.4994
0.907069 11.3443 31.7993
3.87768 17.6308 59.7105
6.88904 1.1342 8.60183
3.66135 5.08861 3.04916
0.558647 0.63974 1.84131
1.19534 3.5766 21.3352
0.0709731 1.12553 1.0266
0.52083 0.190911 3.5567
0.288293 2.19217 6.81318
1.6459 1.58273 31.6407
6.19652 15.037 26.1269
0.661587 0.626998 16.0408
0.104886 4.21656 8.46319
2.83821 5.53824 39.3415
0.442497 2.9951 4.15779
0.0297334 3.67728 0.416494
0.390457 7.30044 19.1312
1.82963 3.65978 1.45586
0.659745 8.41646 35.7702
5.25519 4.94053 28.6134
4.19178 2.13753 4.83175
0.140195 5.60027 20.9995
2.25751 3.15878 74.2426
7.3762 3.65307 28.2328
5.74571 18.0781 19.122
0.163797 2.16165 10.5433
2.80829 3.91887 11.5816
0.10818 2.31134 74.8125
3.66796 20.115 45.4297
6.43284 8.00813 9.61723
1.25421 23.9661 47.5468
1.56952 22.191 114.765
11.922 4.17084 5.53778
3.28286 12.2176 45.6247
0.639134 0.775612 38.5797
1.40529 45.3641 158.337
14.5527 12.2016 56.3062
4.56175 46.5339 176.463
11.1256 3.60281 63.3343
7.70632 13.0558 26.6917
5.89864 18.2582 23.7495
2.70336 6.38431 21.7327
0.104115 4.1096 43.1759
3.79951 2.11863 7.52722
0.983634 2.58648 8.42699
0.0513823 7.28784 14.3457
3.01294 0.8682 23.7333
2.90887 11.5115 18.0509
2.15251 0.647324 19.8171
3.52385 20.4377 62.51
2.04923 4.13514 13.9809
1.38105 6.34753 42.6562
5.83208 1.73237 4.41567
1.82931 1.74319 3.41063
1.54042 16.4094 106.599
5.86169 26.5721 58.4604
6.93291 0.439528 6.94668
2.13825 5.16376 44.9648
5.76564 0.584814 46.2151
6.8851 22.8951 11.8519
1.56925 7.78033 40.4609
3.21909 0.30775 8.25501
2.50198 1.60118 4.6674
2.52698 16.3627 79.9544
4.92381 5.84887 55.2692
2.60896 14.8523 22.4972
0.34219 1.28802 8.141
0.00612461 6.01609 8.33989
1.38485 18.0834 56.514
6.78857 3.0353 66.3304
8.13969 8.64964 1.12288
1.24654 0.695305 52.092
8.27143 40.9104 102.614
2.83358 2.59708 15.1185
3.25215 5.84732 30.8457
0.975129 3.38581 2.06847
0.49728 0.200452 10.3256
1.08993 2.354 0.98078
0.530561 0.65763 16.5707
0.106113 5.01612 19.9924
3.82596 3.56587 7.18113
2.0286 17.286 22.8007
0.156234 9.94617 88.2506
2.81865 7.6274 6.13136
0.665203 8.35172 84.5702
6.60745 4.9271 6.85527
0.475669 1.99227 25.8915
1.95592 24.194 52.1775
6.55574 0.493164 11.7381
3.32359 1.64708 1.12533
1.46632 2.72226 17.4737
0.31136 6.10784 8.69366
2.40249 2.21938 19.0276
1.5021 3.33307 10.2293
0.351423 5.21493 29.259
4.69783 7.0519 10.8574
1.19163 0.443116 7.78038
2.55537 0.64434 3.1493
1.53952 1.03029 2.23178
1.87707 5.34224 24.4961
0.481747 3.21146 2.85958
1.12154 0.213831 0.761803
1.16854 2.04532 5.97011
0.447216 3.28855 71.6953
1.68099 18.8177 56.1818
6.5811 3.25449 15.7275
2.66946 18.1074 14.9461
1.82482 11.4179 93.1498
4.70744 7.69483 33.4389
0.412234 6.87147 33.055
5.04828 18.7164 93.3362
2.0597 1.42612 81.6148
2.29888 20.7186 35.023
2.51514 11.3175 8.55182
0.156743 18.7424 52.0141
6.72423 13.358 33.9624
1.70867 1.5856 3.62046
0.328382 6.12475 39.5803
3.9966 9.68136 8.22849
1.56314 0.129803 11.2254
0.49716 7.36015 8.52842
1.09574 6.04071 22.7646
3.26714 9.15169 18.9501
3.50934 1.31623 21.7251
2.25168 3.95318 2.46495
1.63015 1.83878 7.27611
2.18653 0.0286112 1.39803
1.37396 1.91577 17.7382
0.469118 7.04404 10.7062
2.83947 0.59341 9.14095
2.59373 0.170643 10.9468
2.54561 10.6039 84.9829
2.60232 20.1559 30.6536
3.16854 3.94135 3.14531
1.75594 0.277754 5.26729
1.19552 2.13584 2.30814
0.326041 5.34061 7.82771
2.48146 0.428695 0.922857
1.04352 1.88437 6.53832
1.66025 2.60769 12.4649
3.17845 3.22418 23.5381
0.737461 11.8533 32.572
4.79039 2.40833 6.24322
1.69637 2.95691 47.8188
1.41208 17.1212 7.27469
1.99336 5.50366 11.6778
2.70203 5.47525 27.4256
4.87743 2.76749 4.97262
0.708902 4.23285 4.32456
1.73058 8.5434 57.363
7.75294 0.856798 3.95999
1.53814 1.70666 14.0223
3.39939 0.9282 17.3408
3.09362 3.71757 14.1719
3.42556 5.88459 35.8458
2.67243 0.698157 73.0716
5.80838 30.795 23.0914
2.71859 2.60225 14.0361
0.886037 21.4562 83.4481
9.59901 2.9479 51.3667
7.30976 0.624299 113.103
12.9148 17.673 6.99591
0.693327 7.89359 61.5798
6.18184 1.88477 45.2344
5.93493 22.5913 20.8169
0.345789 3.88751 17.0723
1.84947 4.98776 41.0837
6.3519 8.08552 78.2148
4.76991 36.9713 124.892
10.5519 5.91891 50.1862
7.16672 18.9593 49.8783
0.709999 0 0