# pn-170911/RbIIA-37-USN3-1280-1959.psd
# Power spectrum* (dif=0,1,2) (really just |FT|^2)
# NOTE: only the first half! (symmetric)
# weeks: 1280-1959
# 950 clock-days, 215 excluded
# PSD: 1441
7686.36 0.195405 0.00499237
212888 2.75628 0.0024421
1.29059e+06 27.5414 0.0028783
119477 3.6092 0.00253693
69795.5 4.30679 0.00270051
35381.8 3.21761 0.00273198
25582.5 2.99215 0.00292936
16525.5 2.78428 0.00321903
13036.8 2.62417 0.00317013
11058.8 2.87558 0.00345769
8080.11 2.6508 0.00358296
7171.96 2.66587 0.00401519
5100.79 2.46628 0.00408608
4665.53 2.36331 0.00433214
3834.89 2.53693 0.00469482
3404.72 2.41462 0.00507492
3046.86 2.3033 0.0052336
2741.7 2.45524 0.00560312
2300.88 2.30238 0.00555822
2011.92 2.19933 0.00609706
1868.71 2.2471 0.00659699
1650.66 2.39935 0.00749446
1519.72 2.30444 0.00790997
1443.24 2.3064 0.00858145
1244.11 2.29489 0.0089245
1147.97 2.23928 0.00883075
1106.56 2.45736 0.0102294
1039.58 2.32593 0.010402
954.9 2.35025 0.0115305
848.128 2.29577 0.0115376
801.381 2.26226 0.0122619
742.595 2.22338 0.0128467
684.987 2.16954 0.0132019
669.189 2.24792 0.014029
610.7 2.23659 0.0144325
605.358 2.33367 0.0158425
564.639 2.23408 0.016225
554.429 2.30453 0.0171874
516.073 2.3396 0.0183975
483.596 2.20567 0.0187457
448.557 2.10608 0.0180654
436.23 2.15974 0.0205977
408.268 2.2426 0.0213627
416.258 2.34012 0.0233892
379.491 2.30386 0.0240711
353.065 2.26593 0.02448
339.708 2.16181 0.0240138
337.861 2.3196 0.0268094
327.553 2.34397 0.0278238
294.619 2.16883 0.0270156
292.514 2.22402 0.0291416
284.393 2.22715 0.0298477
261.786 2.22371 0.0315864
264.337 2.2485 0.0318846
251.524 2.32613 0.033927
229.727 2.13233 0.0332833
234.807 2.25993 0.0349424
224.741 2.22131 0.0360789
221.876 2.28786 0.0390382
221.432 2.36398 0.0419476
192.067 2.12199 0.0391727
196.084 2.1684 0.0411756
182.131 2.11928 0.0409871
189.725 2.23789 0.0447959
169.827 2.12134 0.0435244
174.502 2.26198 0.0483218
168.305 2.22603 0.0478348
160.573 2.20791 0.0498327
163.452 2.32352 0.0531763
158.246 2.34143 0.0557316
146.135 2.20522 0.0525677
149.898 2.25102 0.0561765
140.253 2.20253 0.056986
144.389 2.31243 0.0603454
130.521 2.24365 0.0602348
129.467 2.25116 0.0622249
127.562 2.21916 0.0635869
114.785 2.08665 0.0612025
123.131 2.30825 0.0690541
116.064 2.23593 0.0676007
114.349 2.23594 0.0701995
103.71 2.06884 0.0665152
111.658 2.18672 0.0721451
105.015 2.17179 0.0728084
100.436 2.30759 0.0795787
97.3476 2.1689 0.075888
98.6062 2.25425 0.0829144
98.5055 2.30337 0.08528
97.2717 2.38549 0.0905925
97.9863 2.46352 0.0949481
84.9562 2.10754 0.0839466
85.2703 2.16107 0.0871805
86.3501 2.22154 0.0905855
91.001 2.35581 0.0986185
82.8738 2.28495 0.097637
87.8265 2.29466 0.101168
79.733 2.22836 0.0996694
78.5168 2.18065 0.0990459
79.4801 2.3546 0.109386
74.0298 2.16349 0.103623
71.8618 2.27279 0.110249
72.1103 2.29087 0.112185
73.6945 2.30159 0.115396
67.0604 2.2942 0.116619
68.1619 2.31666 0.121068
67.7339 2.37349 0.126971
64.7238 2.27291 0.123016
64.02 2.16688 0.121237
63.8848 2.33717 0.131138
63.6123 2.3722 0.137171
61.0683 2.30484 0.133186
62.2079 2.32052 0.138127
58.5805 2.2824 0.138507
59.9185 2.24081 0.137197
56.3934 2.14255 0.132809
56.0599 2.33763 0.148385
55.5008 2.40332 0.157485
54.5308 2.32649 0.153426
52.1634 2.19241 0.147047
52.1824 2.29275 0.155226
53.7907 2.39031 0.165651
54.1405 2.40512 0.16955
49.3154 2.26791 0.16283
49.1757 2.32297 0.170148
49.2763 2.31119 0.170096
47.7744 2.36555 0.176748
48.148 2.39042 0.181987
45.8587 2.2751 0.176384
47.9549 2.42313 0.192667
46.2958 2.40694 0.191769
43.4058 2.26622 0.181715
44.5808 2.36609 0.193893
44.2711 2.41866 0.20304
41.0447 2.24208 0.189327
43.3083 2.36934 0.203771
40.5363 2.25517 0.196656
39.7148 2.24294 0.199532
39.4375 2.27351 0.20367
36.9161 2.17535 0.199022
37.5163 2.33199 0.215451
35.6434 2.12049 0.197632
39.0782 2.3852 0.227071
34.8355 2.15016 0.205505
38.0964 2.37986 0.234103
36.7203 2.2551 0.223914
34.1641 2.33605 0.236061
37.1154 2.41538 0.243937
34.3079 2.36851 0.244033
35.4043 2.4426 0.254329
32.3583 2.24532 0.239332
34.1344 2.35789 0.253162
32.2613 2.29245 0.248868
31.7091 2.28757 0.251082
31.8533 2.28693 0.255423
30.939 2.24979 0.255199
33.408 2.36371 0.269873
31.115 2.36332 0.274226
30.2057 2.33218 0.27348
30.665 2.33504 0.278731
30.5239 2.30049 0.275541
29.9771 2.22219 0.271667
29.4518 2.37212 0.292715
28.2822 2.23334 0.279723
29.27 2.43128 0.304347
27.1463 2.31755 0.297361
28.4147 2.27172 0.294106
26.7242 2.23627 0.289965
26.7214 2.29445 0.30434
27.399 2.33097 0.315354
26.469 2.27377 0.309266
26.7183 2.39464 0.325969
27.0232 2.30806 0.318452
25.5026 2.3566 0.332068
25.7487 2.3416 0.337239
26.0531 2.35866 0.340553
25.5298 2.40145 0.34754
23.9919 2.24793 0.331762
24.4379 2.4482 0.364229
22.7759 2.35389 0.34957
24.4501 2.38662 0.362994
23.6405 2.34052 0.359915
22.9594 2.36872 0.366356
22.9643 2.31131 0.359614
22.6687 2.35806 0.374312
22.6442 2.40717 0.384234
21.2861 2.24487 0.36155
22.6457 2.37124 0.385221
21.3453 2.32851 0.382604
21.9583 2.38461 0.396086
21.8189 2.58373 0.432923
21.3825 2.38032 0.407539
20.5218 2.31807 0.399224
20.4367 2.26598 0.392249
21.5721 2.39669 0.419809
19.9511 2.32926 0.414062
20.1807 2.32609 0.419082
19.7129 2.26924 0.409686
20.6026 2.42714 0.440747
19.4623 2.3019 0.423089
19.1599 2.36477 0.442481
19.2111 2.34134 0.439194
18.176 2.27084 0.437644
17.4666 2.21492 0.422955
19.9096 2.48984 0.484201
18.5372 2.47862 0.4856
18.5156 2.29573 0.459833
17.257 2.31304 0.463681
18.2007 2.31426 0.464499
18.4465 2.40101 0.486511
17.8055 2.42981 0.502148
17.8431 2.43166 0.502128
17.5141 2.48695 0.522988
17.507 2.40863 0.505308
17.6396 2.53826 0.540131
16.7784 2.2897 0.488615
16.5872 2.36746 0.515078
17.052 2.44776 0.534124
15.5092 2.3414 0.521664
15.9332 2.32457 0.518945
16.1203 2.34219 0.526062
16.3131 2.43748 0.560634
16.0026 2.38192 0.549025
16.5914 2.56286 0.589574
15.2324 2.43114 0.560647
15.4792 2.331 0.551261
16.2608 2.46619 0.584677
15.6618 2.40406 0.577126
15.2785 2.39861 0.578929
15.08 2.44757 0.59677
14.7062 2.39607 0.588003
14.8392 2.4626 0.609552
14.7039 2.38086 0.589093
14.6651 2.35105 0.589106
13.8716 2.30314 0.580486
14.7126 2.4677 0.633744
13.7437 2.35698 0.608309
13.6618 2.35391 0.610603
14.5102 2.49769 0.649555
14.4366 2.49764 0.66354
13.2919 2.38642 0.642297
13.8952 2.45676 0.659004
14.0747 2.46899 0.677015
13.3863 2.32817 0.635453
12.8839 2.3402 0.643865
13.2099 2.3628 0.661553
13.3061 2.4228 0.683605
13.4966 2.544 0.71106
12.7124 2.44751 0.703171
12.7717 2.44275 0.703027
12.7176 2.44254 0.705333
12.4459 2.46032 0.707745
12.6657 2.49324 0.729845
12.8067 2.48702 0.731334
12.5637 2.38473 0.713653
12.0277 2.40638 0.719899
12.6265 2.45938 0.741386
12.1113 2.41941 0.736491
12.1077 2.50251 0.753326
11.7139 2.39276 0.749116
12.0841 2.57166 0.796503
11.41 2.34663 0.746256
11.9039 2.48374 0.7743
11.931 2.48957 0.792045
10.759 2.31416 0.747701
12.1775 2.62259 0.847297
11.1883 2.32441 0.764529
11.3583 2.50681 0.819286
11.5841 2.5012 0.819732
10.7407 2.39316 0.800546
10.693 2.4695 0.838448
11.2296 2.63824 0.893719
10.6109 2.45105 0.828102
10.3404 2.41801 0.825924
11.1229 2.49782 0.86068
10.8268 2.44309 0.849493
10.4625 2.43741 0.860314
10.6731 2.46209 0.866551
10.5609 2.5948 0.931507
10.044 2.3875 0.864755
10.6213 2.49606 0.897126
10.1913 2.52226 0.913862
10.4707 2.59416 0.944863
10.3741 2.55489 0.944291
9.92374 2.4681 0.918926
9.74699 2.49134 0.936164
10.0396 2.49123 0.930168
10.2401 2.56911 0.976354
10.2791 2.72941 1.03111
10.2888 2.60621 1.01184
10.9993 2.79373 1.06778
9.72321 2.62754 1.0124
9.42834 2.48145 0.974584
9.43265 2.55014 1.00956
9.85834 2.55974 1.02406
9.38192 2.54431 1.00148
9.17045 2.5802 1.0302
9.56473 2.60616 1.0433
9.6784 2.64142 1.06893
9.35841 2.51104 1.02474
8.99063 2.55306 1.05857
9.17453 2.60808 1.08697
9.28373 2.55653 1.05802
8.82861 2.50152 1.05107
8.9243 2.57395 1.08809
9.26165 2.63415 1.11646
9.09245 2.59443 1.09321
8.77233 2.49587 1.09224
8.82522 2.65752 1.1487
8.70708 2.55512 1.10997
9.05136 2.69087 1.17531
8.19137 2.49483 1.0996
8.59897 2.52923 1.11768
8.39249 2.59577 1.17663
8.2684 2.45014 1.09382
8.57063 2.66016 1.21553
8.4638 2.58878 1.18459
8.53387 2.66834 1.22864
8.43931 2.65838 1.2186
8.26988 2.64503 1.21833
7.93075 2.46565 1.14563
7.98192 2.58092 1.2138
7.92863 2.57586 1.23059
8.08958 2.5626 1.19326
8.02797 2.61245 1.25828
8.41491 2.64993 1.26372
7.47212 2.41435 1.17469
7.98745 2.65016 1.28901
7.83671 2.6444 1.27833
7.72908 2.52697 1.23665
7.81297 2.57636 1.28042
7.86292 2.64436 1.33568
7.86674 2.60779 1.28485
7.52448 2.6532 1.34644
8.07667 2.8112 1.41294
7.78527 2.58158 1.29806
7.90723 2.72225 1.3972
7.4627 2.5569 1.33015
7.37273 2.55578 1.31654
7.22083 2.55852 1.33517
7.44574 2.64121 1.39292
7.08354 2.43432 1.27569
6.86652 2.54281 1.35378
7.03366 2.55265 1.35603
7.68731 2.75765 1.45151
7.30868 2.71285 1.46808
7.39588 2.61263 1.42634
6.89418 2.59234 1.40864
6.91709 2.65233 1.47384
7.04144 2.65611 1.46096
7.16307 2.64182 1.44932
6.93024 2.55501 1.43823
6.72609 2.63773 1.48881
7.13194 2.75726 1.53195
6.51908 2.53481 1.42701
7.2921 2.70166 1.51383
6.65198 2.6052 1.49613
6.59923 2.64081 1.53796
6.81737 2.75116 1.57187
6.66943 2.55693 1.49165
6.79741 2.85531 1.68349
6.89438 2.60401 1.52812
6.82463 2.67172 1.55741
6.68658 2.62324 1.58009
6.38801 2.65953 1.59264
6.8043 2.85325 1.68199
6.63956 2.52165 1.53007
6.13662 2.66935 1.61729
6.68408 2.8067 1.70551
6.30502 2.69212 1.6563
6.73728 2.72682 1.68104
6.32899 2.59869 1.59059
6.36601 2.70331 1.68007
5.92117 2.52233 1.57069
6.41405 2.69271 1.69627
6.34584 2.71995 1.7387
6.32617 2.75669 1.76702
6.46725 2.7554 1.71353
6.23711 2.84333 1.83631
6.32283 2.78236 1.79331
6.15173 2.75531 1.78673
6.27583 2.76028 1.77271
6.03788 2.67957 1.74939
6.04203 2.83465 1.86382
6.08353 2.85711 1.88448
5.94054 2.71 1.78679
5.80397 2.6597 1.77014
5.62906 2.67164 1.81398
5.76791 2.68221 1.7679
5.69468 2.51181 1.71151
5.92072 2.71136 1.82415
5.93328 2.85834 1.93984
5.67557 2.68204 1.86198
5.65263 2.74195 1.89814
5.77584 2.71847 1.89366
5.65839 2.7171 1.86494
5.56724 2.70677 1.8982
5.59053 2.70247 1.9304
5.60401 2.72828 1.89709
5.54375 2.68462 1.93199
5.41607 2.66805 1.89406
5.43264 2.67263 1.95048
5.5077 2.81754 1.97184
5.40822 2.71634 1.98775
5.46515 2.70301 1.93707
5.40383 2.7654 2.00061
5.4567 2.80007 2.06638
5.42725 2.72505 1.98082
5.43252 2.78655 2.06065
5.57634 2.82084 2.1326
5.3325 2.65993 1.96163
5.46192 2.81939 2.08642
5.39873 2.92559 2.18463
5.38396 2.84777 2.16631
5.26834 2.71749 2.10091
5.30139 2.73569 2.06914
4.98262 2.66905 2.0833
5.24589 2.77244 2.12881
5.04909 2.65496 2.06638
5.62748 2.9622 2.25065
5.17601 2.77122 2.19113
5.14381 2.74299 2.13258
4.98746 2.68743 2.12571
4.93455 2.69544 2.13812
5.23263 2.77444 2.19854
4.77966 2.68018 2.13381
5.15122 2.90155 2.33648
5.09701 2.72388 2.17387
5.22434 2.92359 2.36666
4.97485 2.86613 2.34051
4.84176 2.62079 2.18581
5.22446 2.92606 2.32729
5.02558 2.83405 2.29943
4.70071 2.7707 2.30696
4.83732 2.75209 2.31074
4.94645 2.96071 2.4851
4.76998 2.76232 2.34182
4.84134 2.72719 2.2656
4.86387 2.74405 2.35245
4.81187 2.8064 2.37917
4.6948 2.85425 2.42166
4.82187 2.79733 2.37369
4.77766 2.88889 2.47792
4.79603 2.93119 2.48353
4.77296 2.89584 2.51332
4.89169 2.89806 2.55308
4.74557 2.9579 2.56375
4.63378 2.85723 2.45208
4.64323 2.72583 2.38072
4.75875 2.86566 2.60924
4.52444 2.7535 2.40243
4.69367 2.82701 2.52215
4.5508 2.70511 2.4842
4.75376 2.91615 2.56228
4.59077 2.9836 2.66393
4.55175 2.92185 2.61574
4.23061 2.62767 2.41077
4.40679 2.82277 2.6204
4.3504 2.83258 2.61698
4.26413 2.77924 2.5939
4.59631 2.89833 2.66713
4.51471 2.89174 2.65579
4.19155 2.64278 2.50279
4.44365 2.98558 2.79695
4.38789 2.83915 2.65605
4.57885 2.97746 2.79826
4.42384 2.95935 2.78728
4.37983 2.98726 2.82356
4.31172 2.8619 2.75476
4.07337 2.73693 2.64209
4.44298 2.90808 2.75957
4.48474 3.11575 2.94974
4.19901 2.79135 2.68747
4.20427 2.88437 2.77266
4.22241 2.91847 2.89491
4.37537 3.05166 2.95078
4.17642 2.83602 2.73546
4.14504 2.83754 2.81108
4.26429 3.03282 3.03911
4.43377 3.03359 2.96939
4.09689 2.90134 2.89914
3.97227 2.82894 2.82824
4.08112 2.8955 2.9534
4.39282 2.9989 2.95067
3.81275 2.81899 2.91679
4.24152 3.00849 3.04832
4.00209 2.91347 3.00615
3.77641 2.69922 2.8336
4.04622 2.99141 3.07647
3.96567 2.89484 3.00548
4.43355 3.17121 3.21326
3.93275 2.92146 3.04589
3.97549 2.90685 3.00117
4.25425 3.026 3.1116
3.85371 2.82854 3.00418
4.01953 2.84663 2.92269
3.92886 3.00031 3.18265
4.05296 3.12245 3.39513
4.05751 3.0019 3.20947
3.98368 2.95212 3.17292
3.93532 2.99728 3.16397
4.03341 3.00072 3.24764
3.97154 3.00627 3.21506
3.76877 2.88918 3.14746
4.06878 3.19653 3.45045
4.07391 3.16179 3.49303
3.81531 2.96472 3.21864
3.99258 3.1741 3.56015
3.82815 3.023 3.28747
3.77744 2.88103 3.26506
3.8214 2.96636 3.34284
3.86329 3.07057 3.42672
3.73031 2.92142 3.30803
3.77965 2.95403 3.34498
3.78597 3.07476 3.40311
3.63141 2.90858 3.36292
3.78749 3.04909 3.41538
3.71279 3.05469 3.55642
3.5778 2.91727 3.37108
3.68548 2.80061 3.20166
3.74947 2.92611 3.34719
3.82209 3.13559 3.5894
3.58537 2.85769 3.31208
3.71359 3.03782 3.57496
3.73527 3.07198 3.60923
3.68394 3.00124 3.48616
3.60448 3.00648 3.56131
3.56065 2.98928 3.44787
3.47001 2.86867 3.42708
3.45711 3.02925 3.63839
3.58151 3.11454 3.69916
3.57692 2.96205 3.4675
3.51617 3.19473 3.80454
3.52612 3.07902 3.81202
3.55403 3.06804 3.61749
3.49071 3.11471 3.7844
3.48025 3.03095 3.72808
3.62444 3.11788 3.85165
3.60916 3.2114 3.82685
3.43381 2.89745 3.64226
3.52728 3.04234 3.65995
3.46895 3.11935 3.8826
3.60996 3.20917 4.01904
3.5626 3.17953 3.97684
3.4026 3.09421 3.85737
3.46112 3.09995 3.827
3.50725 3.23751 4.15224
3.53302 3.13825 3.97396
3.34722 3.04101 3.8725
3.49736 3.13943 3.87191
3.27748 2.98482 3.76572
3.22206 3.04272 3.90229
3.45977 3.08644 3.93681
3.24312 3.06686 4.08864
3.46704 3.25854 4.16112
3.35634 3.12679 4.18245
3.38814 3.04218 3.88117
3.46688 3.19388 3.95909
3.40984 3.29046 4.42593
3.45394 3.13733 4.03875
3.40223 3.17411 4.09925
3.44043 3.27176 4.23913
3.23939 3.1773 4.26808
3.36273 3.15534 4.21202
3.24454 3.14058 4.19346
3.28075 3.26985 4.46385
3.47349 3.28094 4.25592
3.22279 3.23865 4.43294
3.24427 3.05914 4.08133
3.17415 3.18153 4.32045
3.19758 3.23968 4.426
3.41699 3.40464 4.61892
3.18554 3.22335 4.4975
3.26131 3.17149 4.41065
3.54509 3.42736 4.69976
3.35451 3.34632 4.68133
3.43218 3.40081 4.50335
3.2454 3.30425 4.67854
3.44656 3.45555 4.67867
3.20297 3.33409 4.59758
3.44769 3.51174 4.91671
3.32804 3.35392 4.71351
3.37105 3.38917 4.70553
3.19137 3.34916 4.67527
3.13208 3.30918 4.73407
3.23238 3.45088 4.89061
3.19992 3.25676 4.67095
3.08237 3.14616 4.58656
3.12808 3.28021 4.61488
3.17037 3.40338 4.91433
3.16539 3.26362 4.67773
3.1952 3.17769 4.58792
3.30118 3.41314 4.94157
3.19305 3.33295 4.74481
3.02903 3.37747 4.94582
3.07057 3.24574 4.66237
3.01029 3.17319 4.69938
3.23578 3.35519 4.81787
2.92732 3.10515 4.66423
2.98999 3.22989 4.79619
3.1157 3.22806 4.79483
3.16006 3.35172 4.92513
2.99876 3.23714 4.85665
2.95299 3.10483 4.56447
3.0737 3.38218 4.99455
2.98177 3.1302 4.80233
2.98607 3.24025 4.87444
3.15764 3.34433 4.90111
2.73686 3.05727 4.74356
3.03237 3.29559 5.07359
3.03657 3.36445 4.98374
2.96906 3.22538 4.89979
2.88847 3.21699 5.01805
2.95834 3.25808 5.11137
2.99776 3.33495 5.25296
3.04233 3.3256 5.13045
3.07611 3.389 5.0837
2.94437 3.36518 5.25319
2.86635 3.30148 5.18619
2.98427 3.32896 5.21053
2.89265 3.17611 4.96767
3.04286 3.44505 5.34054
3.02328 3.36394 5.09503
2.78095 3.33412 5.29942
2.95762 3.30949 5.23035
2.83792 3.2261 5.08588
2.92525 3.39032 5.34233
2.82738 3.25699 5.28218
2.90997 3.42086 5.3702
2.93524 3.34839 5.37563
2.8437 3.37073 5.50139
2.78922 3.37395 5.54971
2.79493 3.38678 5.49967
2.97217 3.32971 5.26632
2.59117 3.12628 5.26905
2.87908 3.53592 5.79946
2.89918 3.39188 5.53589
2.75853 3.43632 5.47098
2.73131 3.21904 5.2354
2.75069 3.32613 5.57161
2.67632 3.23416 5.30615
2.7206 3.25977 5.39306
2.79722 3.35428 5.54391
2.81895 3.42949 5.64043
2.67411 3.27711 5.55587
2.90379 3.56919 5.88713
2.71326 3.34139 5.76572
2.89486 3.45457 5.73089
2.62907 3.17705 5.39359
2.73343 3.36173 5.73886
2.85318 3.51861 5.86311
2.79384 3.50215 5.9019
2.57764 3.27241 5.60084
2.66253 3.26207 5.59441
2.72878 3.39286 5.6696
2.74915 3.50799 5.96109
2.6756 3.3756 5.75116
2.64899 3.40226 5.88613
2.64339 3.28969 5.59094
2.56439 3.33366 5.84238
2.53461 3.17206 5.87229
2.82721 3.40517 5.77004
2.81467 3.49915 6.00026
2.75455 3.48586 6.01286
2.78282 3.51175 6.25295
2.57079 3.43708 5.99515
2.51118 3.32107 5.91336
2.60517 3.30995 5.85144
2.69894 3.5689 6.18804
2.58042 3.31127 6.01901
2.78421 3.49076 5.97915
2.58396 3.33629 5.92205
2.54751 3.37246 6.10345
2.40401 3.2357 5.88742
2.50794 3.34527 6.08229
2.56277 3.34529 6.09321
2.63487 3.46544 6.23633
2.60662 3.56939 6.42994
2.53057 3.23731 6.00301
2.72896 3.66281 6.26393
2.43788 3.37389 6.19593
2.65245 3.54756 6.3803
2.59959 3.46984 6.44224
2.55868 3.48886 6.44359
2.56379 3.52029 6.5414
2.69986 3.75903 6.81511
2.60177 3.55888 6.62437
2.54479 3.48304 6.43492
2.62681 3.59078 6.6354
2.51574 3.41587 6.33332
2.40587 3.36988 6.40234
2.6041 3.44286 6.39446
2.49527 3.47503 6.70579
2.62759 3.5813 6.73939
2.51424 3.55249 6.53161
2.40983 3.43283 6.6337
2.43267 3.42405 6.31101
2.49323 3.46267 6.51008
2.46515 3.41333 6.77334
2.60737 3.55786 6.67584
2.57005 3.48821 6.65392
2.45149 3.55669 6.80388
2.38986 3.26717 6.46346
2.5199 3.58759 6.70047
2.47045 3.80934 7.43654
2.54915 3.56106 7.00251
2.68496 3.83082 7.17194
2.46394 3.48955 6.75344
2.48751 3.6813 7.07481
2.59697 3.7544 7.31656
2.41026 3.35151 6.73299
2.35233 3.41711 6.64266
2.43461 3.42884 6.81163
2.3623 3.40606 6.83453
2.48716 3.60953 7.01155
2.36688 3.36212 6.63942
2.42758 3.6624 7.2587
2.45121 3.59079 7.07793
2.35022 3.506 6.93486
2.39433 3.50001 7.18004
2.54413 3.61881 6.84052
2.31104 3.58556 7.05888
2.07073 3.34617 7.10683
2.36177 3.56728 7.10533
2.36394 3.52443 7.31635
2.45898 3.51454 6.85762
2.36159 3.56709 7.25012
2.47292 3.90813 8.03391
2.42197 3.77988 7.72615
2.42736 3.7005 7.40839
2.25608 3.43577 7.10542
2.31487 3.45632 7.27598
2.43654 3.62376 7.22629
2.4171 3.72489 7.46383
2.34126 3.44311 7.10616
2.46877 3.72189 7.61864
2.38693 3.57343 7.43403
2.28418 3.58029 7.41263
2.28738 3.61883 7.81821
2.48977 3.70195 7.24342
2.19465 3.45605 7.32121
2.25241 3.52968 7.44829
2.27882 3.76008 8.04883
2.30323 3.57841 7.36026
2.30031 3.67705 7.85133
2.31781 3.72347 7.81812
2.36602 3.62799 7.41875
2.19864 3.4163 7.15391
2.2723 3.86437 8.40274
2.34081 3.67445 7.71614
2.26525 3.50124 7.46196
2.27937 3.70258 7.86702
2.20167 3.3894 7.36884
2.20215 3.62066 7.83145
2.38816 3.69338 7.86949
2.32124 3.83367 8.11128
2.25644 3.62555 7.66766
2.24009 3.70336 8.01441
2.25511 3.57213 7.87463
2.3427 3.74276 8.05438
2.27774 3.54755 7.79717
2.20683 3.78656 8.28678
2.35563 3.87535 8.4727
2.32268 3.68928 8.11042
2.2457 3.68539 7.96631
2.27522 3.82893 8.31347
2.20524 3.69998 8.4053
2.23282 3.69602 7.7835
2.11784 3.59098 8.1717
2.27504 3.88255 8.5931
2.33698 3.85032 8.43481
2.19908 3.63351 8.00556
2.27923 3.79652 8.4261
2.23663 3.5644 7.7609
2.08106 3.49772 8.17761
2.26913 3.86199 8.60644
2.23934 3.72881 8.30528
2.26572 3.83625 8.76574
2.22688 3.63784 8.2207
2.28153 3.77755 8.36224
2.22034 3.57532 7.94551
2.18071 3.81758 8.70263
2.14971 3.56329 8.1761
2.19468 3.73599 8.29115
2.21932 3.84074 8.55032
2.06206 3.75849 8.87206
2.32563 3.9819 8.93618
2.18883 3.70241 8.87278
2.35509 3.81232 8.56271
2.25814 4.05481 8.93584
2.19657 4.11059 9.4757
2.30477 3.97511 8.97951
2.10881 3.55087 8.46789
2.17168 3.92367 8.96554
2.20045 3.61125 8.17586
2.17289 3.76054 8.74731
2.12756 3.72979 8.77503
2.15908 3.79313 8.97249
2.08834 3.79384 8.90523
2.08484 3.55051 8.6708
2.18218 3.98251 8.93561
2.10356 3.43252 8.34927
2.06321 3.64061 8.3545
2.06319 3.8767 9.29993
2.18038 3.83636 8.98706
2.18349 3.85011 8.91826
2.10831 3.78564 9.30142
2.18348 3.68997 8.6144
2.07027 3.9224 9.19183
2.09608 4.06666 9.57903
2.07091 3.80644 9.14391
2.06512 3.76769 9.0508
2.15526 3.79783 9.30178
2.19216 3.96112 9.30477
2.10991 3.77699 9.56417
2.41241 4.3326 9.98479
2.13919 3.91411 9.31014
2.13478 4.035 9.80383
2.12957 3.97722 9.27685
2.01251 3.73835 9.29107
2.11495 3.98326 9.6108
2.10655 3.68757 8.94703
2.11201 3.98954 9.77549
2.15101 3.91239 9.56295
2.04881 3.98346 9.73258
2.03943 3.66868 8.90917
2.11563 4.0924 10.2519
2.19988 3.94879 9.66767
2.03254 3.59742 8.87302
2.08111 3.84919 9.42658
2.13544 4.0434 9.72309
2.05692 3.82666 9.53943
2.00162 3.80785 9.27838
2.02229 3.83283 9.60449
2.0582 4.10122 10.3356
2.08215 3.94488 9.71064
1.96018 3.81017 9.69595
1.98052 3.77841 9.2717
2.06767 4.13658 10.5605
2.13647 3.99258 9.79972
2.05908 3.93903 10.2096
2.07537 4.01224 10.1769
2.11877 3.7756 9.32829
2.08149 4.19239 10.3108
1.97473 3.7457 10.1804
2.17766 4.08347 9.96397
1.99814 4.05954 10.5035
2.08354 4.08702 10.7153
2.12837 3.97112 9.80737
2.01994 3.99195 10.007
2.01647 4.06219 10.2544
2.02552 4.17526 10.6658
2.01449 3.86109 10.2097
2.11937 4.36752 10.8496
2.06122 4.08308 10.1899
1.99269 4.16498 11.1249
2.17545 4.27434 11.1495
2.16999 4.23225 10.9468
2.09574 4.23929 11.0943
2.10452 4.23556 11.4263
2.15517 4.25967 10.5702
2.09189 4.49298 11.726
2.04213 4.30862 12.0387
2.27111 4.67625 11.6245
2.14761 4.40958 11.3484
2.10793 4.33406 11.8715
2.33954 4.78762 12.3048
2.23623 4.63953 12.2697
2.19264 4.31159 11.028
2.06187 4.29395 10.7475
1.92448 4.00605 11.4328
2.03978 4.13236 10.7189
1.91827 4.06097 10.5898
2.1052 4.45675 11.7212
2.05949 3.92287 10.4935
2.04577 4.46001 11.8924
2.05621 4.12295 10.7094
1.94244 3.82609 10.9143
2.04246 4.08184 10.6477
1.9991 4.15359 11.0768
2.01324 3.96987 10.5939
2.00542 4.16968 10.9561
1.95214 4.11252 11.8586
2.08105 4.3616 10.8647
1.83403 4.06152 11.3712
2.02827 4.04109 10.6821
1.91054 4.03501 10.9418
1.99974 4.07929 11.4496
2.04917 4.06008 10.987
2.01322 4.21425 11.7095
2.07257 4.14331 11.2307
2.0463 4.06905 11.0216
1.89431 3.99038 10.6961
1.90232 4.0659 11.1792
1.8943 4.01038 11.2952
1.92882 3.90351 10.4298
1.86602 4.03908 11.7448
1.99051 3.98217 10.7799
1.91228 4.19316 11.5957
1.92203 4.08732 10.9624
1.9082 3.97755 11.2992
1.98205 4.04919 10.9369
1.91783 4.05828 11.4946
1.91177 4.07863 11.3023
1.97319 4.19358 11.4576
1.88176 3.99277 10.7727
1.87795 4.10596 11.4678
1.95085 4.35226 12.0337
1.86466 4.18501 11.7592
1.90516 3.97859 10.9993
1.88303 4.24927 12.0947
1.95298 4.09162 12.1527
2.01195 3.98441 11.4416
1.98599 4.21718 11.2552
1.77081 3.91582 11.651
2.03282 4.31525 11.6834
1.99052 4.41694 12.2039
1.84655 4.01502 11.4756
1.84294 4.25737 11.6399
1.87823 4.13653 12.2106
1.96281 4.13223 11.3891
1.80593 4.2102 11.8601
1.9154 3.98632 11.6654
1.93079 4.20275 11.7562
1.88749 4.24227 11.558
1.82556 4.16493 12.1893
1.85856 4.04466 11.7764
1.9026 4.30073 12.3397
1.89413 4.31812 12.575
1.98579 4.28131 11.9493
1.81632 4.14947 12.042
1.87493 4.05565 11.8162
1.95694 4.46148 13.1383
1.94602 4.25804 12.1358
1.90223 4.31279 12.997
1.99309 4.40707 12.5368
1.93117 4.06126 11.8974
1.85031 4.0576 11.4719
1.79906 4.1544 12.3508
1.86012 3.95064 11.6834
1.82676 4.02516 11.6807
1.85165 4.20591 12.4237
1.90593 4.26248 12.7345
1.85157 4.06614 12.2236
1.91774 4.31001 12.207
1.90605 4.2989 12.2903
1.75706 4.12885 12.1213
1.80682 4.22943 12.657
1.95821 4.26482 12.1047
1.78898 4.08476 11.7734
1.73557 4.12766 12.5241
1.8158 4.06787 12.1371
1.74868 3.91329 11.6351
1.76706 3.99196 11.5898
1.75471 4.19313 12.5504
1.88783 4.18972 12.7172
1.88082 4.27869 12.7333
1.84256 4.20638 12.5097
1.85103 4.45896 13.0654
1.8859 4.32689 13.0883
1.88995 4.41858 13.0956
1.83335 4.11685 12.5453
1.84939 4.40756 12.9233
1.77152 4.08437 13.1523
1.92776 4.53422 12.8966
1.82245 4.52192 13.5757
1.80488 4.14856 12.916
1.83057 4.14672 12.7882
1.86704 4.28182 13.03
1.79041 4.17301 12.5349
1.83007 4.48175 13.2329
1.81761 4.15302 12.5106
1.72826 4.07084 12.219
1.72736 4.20209 13.0319
1.71776 4.06768 13.0291
1.91302 4.54918 13.76
1.86045 4.44757 12.9466
1.73048 4.1011 12.7972
1.85075 4.32639 13.2675
1.82324 4.42695 13.2946
1.74239 4.19147 13.4409
1.78611 4.26134 13.0194
1.88156 4.40882 13.4872
1.86919 4.64699 13.9651
1.82313 4.34186 13.7476
1.82623 4.39697 13.6905
1.80774 4.37983 13.4267
1.76975 4.32621 13.6026
1.83076 4.13552 12.2712
1.63939 4.02904 13.2058
1.75821 4.35223 13.3043
1.75766 4.21038 13.5047
1.79544 4.28745 13.1811
1.75152 4.24372 12.6354
1.69052 4.23614 13.3909
1.7372 4.16567 12.6671
1.69785 4.22305 13.3911
1.76262 4.58465 14.7824
1.90387 4.40486 13.8871
1.81403 4.38532 13.2609
1.82866 4.4605 13.6689
1.77476 4.45631 14.3127
1.75158 4.21141 13.4868
1.77719 4.29203 13.1082
1.71281 4.37266 13.2166
1.64174 4.18646 14.7546
1.92686 4.37609 13.6741
1.79752 4.60011 14.1288
1.74773 4.24825 14.2726
1.81709 4.45466 13.1925
1.73966 4.23713 13.6766
1.77701 4.37906 13.7086
1.67999 4.28268 14.0506
1.7587 4.29528 13.7314
1.75404 4.34239 13.9869
1.78726 4.64848 14.3962
1.78534 4.32366 13.995
1.72238 4.64294 14.4427
1.71472 4.03078 13.1588
1.70096 4.2877 13.8529
1.72439 4.18769 13.1504
1.68659 4.64103 15.1482
1.77298 4.17433 13.7674
1.72863 4.32862 13.8806
1.74725 4.42101 14.0299
1.69829 4.61127 14.8599
1.6904 3.89842 13.1607
1.68603 4.2522 13.2669
1.6654 4.28225 14.4186
1.74577 4.41584 14.1459
1.75126 4.18356 13.2962
1.68623 4.13412 13.3242
1.68109 4.38409 14.6418
1.73504 4.18357 13.337
1.68454 4.42588 14.1605
1.69339 4.3965 14.8802
1.75152 4.54502 14.7352
1.69158 4.1823 13.8893
1.80651 4.55411 13.8248
1.56566 3.95687 13.4189
1.62488 4.44627 14.2472
1.69632 4.3531 14.2006
1.63962 4.41914 15.0404
1.72451 4.11112 13.9914
1.68596 4.62717 15.3919
1.75011 4.19242 13.9102
1.7408 4.5794 14.5934
1.71752 4.543 14.8908
1.7204 4.57851 16.2583
1.81882 4.3697 13.4396
1.56315 4.16737 13.9582
1.64757 4.35726 14.8861
1.79268 4.69604 14.5797
1.61237 4.33585 14.7047
1.73008 4.23967 14.3178
1.69783 4.37749 14.5272
1.62029 4.43415 15.0755
1.62333 4.11874 14.3229
1.68845 4.32178 14.4117
1.69974 4.30119 14.0868
1.63581 4.42872 14.5911
1.6611 4.20931 14.5226
1.73496 4.68369 15.4876
1.69204 4.34037 14.8012
1.69498 4.6572 15.4632
1.75997 4.5566 15.3271
1.69309 4.49326 14.4874
1.57761 4.12593 14.6259
1.6498 4.33236 14.6594
1.6614 4.53551 15.0559
1.65194 4.35001 14.7352
1.6454 4.46095 14.5214
1.63245 4.42849 15.1665
1.70767 4.51318 15.0977
1.62264 4.45712 16.2791
1.77821 4.69683 15.8784
1.69147 4.404 14.656
1.64151 4.59716 15.204
1.61825 4.33352 14.4679
1.59596 4.32842 15.1029
1.66947 4.30909 15.2019
1.70349 4.64988 15.2954
1.65597 4.31847 15.3509
1.67682 4.5797 15.4309
1.67153 4.36182 15.744
1.71578 4.48279 14.9329
1.63813 4.48692 16.0621
1.81185 4.76039 16.5728
1.77342 4.57047 15.2068
1.67885 4.35063 15.2122
1.63011 4.50883 15.1826
1.69203 4.52686 15.2972
1.64263 4.57751 15.8012
1.63376 4.41195 15.4559
1.69214 4.69309 16.0732
1.69839 4.56822 15.7316
1.65673 4.63675 15.555
1.68386 4.76898 16.909
1.78151 4.80922 15.4046
1.55715 4.1202 15.4406
1.72036 4.74161 15.9263
1.67657 4.88382 16.5188
1.65161 4.48078 15.9445
1.65371 4.49079 16.1753
1.71165 4.5401 15.4976
1.62693 4.35917 15.0807
1.59399 4.35894 15.7292
1.6917 4.51502 15.9209
1.7055 4.88866 16.9546
1.71519 4.60164 15.5293
1.65167 4.63903 16.1549
1.57462 4.49031 16.1733
1.73077 4.67879 16.1983
1.64387 4.23331 14.9446
1.59356 4.36577 14.9511
1.62641 4.77529 17.426
1.70256 4.42067 15.0032
1.54474 4.41794 16.365
1.65281 4.529 16.732
1.71755 4.45715 15.8184
1.6321 4.49539 15.5187
1.57618 4.44044 15.6394
1.58885 4.54657 16.5534
1.68415 4.45698 15.724
1.60956 4.74403 15.7581
1.56768 4.45739 16.5598
1.65826 4.43039 15.1901
1.57335 4.44926 16.0741
1.61726 4.65627 16.7464
1.65554 4.51923 16.4171
1.63734 4.31283 15.7529
1.59702 4.25071 15.0176
1.59279 4.98817 16.6943
1.58385 4.61948 17.0143
1.70717 4.7006 16.1326
1.65506 4.54944 16.9692
1.7248 4.57273 16.4603
1.61776 4.69216 16.7682
1.66106 4.57253 16.8184
1.64139 4.75437 17.2662
1.71002 4.5709 15.5935
1.57355 4.66973 16.0913
1.58386 4.63446 17.5966
1.76391 4.94264 16.5557
1.59853 4.82475 17.7433
1.66101 4.6326 16.6251
1.63372 4.62887 16.9416
1.64542 4.5683 16.2926
1.64721 4.60686 16.7223
1.65659 4.90451 18.4419
1.81973 5.2539 19.6446
1.93038 5.31311 18.8849
1.83775 5.22188 17.9954
1.66561 4.97712 18.9357
1.76938 5.14649 19.95
1.918 5.2514 17.5168
1.62984 4.55142 16.3098
1.63561 4.70923 16.071
1.6099 4.83644 17.7351
1.70338 4.72993 17.3421
1.64564 4.61875 16.7611
1.63589 4.61339 16.7581
1.63722 4.86392 17.5591
1.66682 4.68249 16.9085
1.56701 4.42879 16.1884
1.55482 4.69929 17.0736
1.6129 4.54267 16.2694
1.54473 4.51013 17.3369
1.65189 4.49185 16.5898
1.60777 4.62292 17.4267
1.65761 4.8028 17.3827
1.66516 4.7317 16.8531
1.5354 4.31338 16.2303
1.55564 4.78583 17.4492
1.66979 4.95929 18.0981
1.67058 4.67628 17.7045
1.65943 4.37558 15.7694
1.55455 4.91952 17.9127
1.69874 4.74298 17.2916
1.64974 4.74731 16.8088
1.60472 4.37834 16.9947
1.57438 4.60363 17.3071
1.65096 4.77014 16.4673
1.57502 4.8459 17.8173
1.55808 4.46882 16.8326
1.63812 4.96738 17.6517
1.56533 4.4717 16.7846
1.53084 4.40672 16.7603
1.59065 4.39145 16.3221
1.50814 4.56559 17.006
1.61224 4.69543 17.8137
1.66785 4.86779 17.6936
1.59543 4.62266 17.066
1.59333 4.65468 17.6177
1.59332 4.67568 17.2517
1.58637 4.90672 17.5363
1.54855 4.10053 15.9304
1.53284 4.42206 16.311
1.48795 4.67833 17.0782
1.5505 4.46309 16.7135
1.52194 4.42749 17.2613
1.56134 4.50169 16.8462
1.54852 4.75595 16.9264
1.55984 4.46945 16.533
1.48219 4.56893 17.4454
1.5924 4.49438 16.6713
1.53481 4.34631 16.8257
1.58029 4.72402 17.5527
1.5417 4.56559 17.1511
1.56595 4.5643 16.8031
1.51688 4.52366 18.0382
1.56785 4.63858 17.6888
1.59602 4.7296 17.6895
1.61806 4.70039 16.6866
1.50872 4.56645 17.5607
1.61561 4.48658 17.1464
1.55971 4.69885 17.6216
1.5355 4.53726 17.4353
1.59771 4.77647 18.365
1.67823 4.87356 17.5301
1.54881 4.46553 17.4086
1.59374 4.78649 18.5178
1.60702 4.84495 17.524
1.51761 4.57987 16.9907
1.47792 4.60509 17.249
1.50555 4.30833 16.6329
1.51873 4.6273 17.4137
1.56773 4.44565 17.1778
1.58317 4.9844 18.671
1.65659 4.68162 16.9108
1.52678 4.83238 18.5529
1.55337 4.48996 17.7392
1.54978 4.71094 17.2828
1.56139 4.79408 18.3439
1.62845 5.11723 18.622
1.58062 4.73057 17.734
1.5053 4.52352 17.5149
1.56205 4.48374 16.4954
1.49981 4.74982 19.0005
1.54062 4.84635 18.065
1.56275 4.35519 16.8841
1.48651 4.45469 16.9635
1.48217 5.17845 18.9567
1.53714 4.28138 16.6729
1.4709 4.17249 16.1641
1.42027 4.32727 17.1832
1.58011 4.53433 16.6319
1.51484 4.72412 18.2034
1.52599 4.42566 16.561
1.43547 4.37105 17.5699
1.5344 4.77778 17.4256
1.54471 4.50968 15.6716
1.3893 4.65757 18.5402
1.58746 4.63617 18.052
1.55044 4.68634 18.1233
1.63122 4.80867 18.2486
1.56696 4.83855 18.2848
1.56244 4.61444 17.8956
1.48946 4.74459 18.4795
1.48677 4.72491 18.0404
1.54239 4.59667 18.4833
1.56877 4.84208 18.4094
1.58431 4.92078 18.0109
1.57385 4.67553 17.9875
1.5284 4.51678 17.431
1.51789 4.7725 18.1302
1.46738 4.49855 17.7742
1.48691 4.39726 16.5373
1.41573 4.45706 18.8551
1.66281 5.01027 18.9707
1.57453 4.87241 19.2396
1.59224 4.75469 17.9526
1.57187 4.46834 17.537
1.47746 4.77511 18.2681
1.5693 4.43292 17.4539
1.49298 4.59166 17.7979
1.5495 4.77123 17.9906
1.5302 4.59598 17.5643
1.50868 4.52514 17.8033
1.47419 4.68502 17.9822
1.48858 4.55219 16.8674
1.43398 4.35463 17.8956
1.49804 4.7316 17.7178
1.52093 4.3993 18.2279
1.56229 4.84901 17.9887
1.49755 4.9174 19.4706
1.64318 4.87856 19.499
1.64075 4.89909 17.794
1.50449 4.83488 18.6216
1.56726 4.68059 18.5882
1.53204 4.76625 18.0604
1.54913 5.09955 20.1175
1.60401 4.9943 18.8674
1.44571 4.53176 17.6077
1.50645 4.75882 18.2315
1.53829 4.39911 17.5351
1.4896 4.51363 18.7429
1.57228 4.7368 18.3485
1.56329 4.95555 18.7051
1.54934 4.85145 18.931
1.56175 4.65765 17.5523
1.43285 4.34312 17.0242
1.46744 4.5372 18.4704
1.55699 4.41907 17.1335
1.46847 4.68271 18.9103
1.57271 4.98789 19.3933
1.58305 4.77309 17.9977
1.45522 4.62568 17.8891
1.53674 4.70141 18.2343
1.52331 4.78216 18.9865
1.56227 4.84328 18.8984
1.5671 4.52501 16.7443
1.39687 4.64764 18.6676
1.4425 4.74082 19.2085
1.54559 4.56638 17.8533
1.46065 4.70007 18.3013
1.50256 4.86478 18.4764
1.46349 4.54163 18.6894
1.53205 4.58394 18.1911
1.50768 4.63055 17.3717
1.41845 4.47636 18.4936
1.49482 4.7409 17.9711
1.45223 4.47637 17.6449
1.47926 4.68709 18.3306
1.49595 4.71089 18.5296
1.55062 4.70965 19.5267
1.57269 4.60964 17.5413
1.39381 4.62551 17.9616
1.50514 4.47662 17.9756
1.50088 4.7396 19.3782
1.58797 4.38925 17.0509
1.42648 4.76985 17.8176
1.45777 4.68567 19.2048
1.54676 4.75163 18.9968
1.52481 4.99816 18.8191
1.4954 4.50535 18.1124
1.4571 4.40133 18.4115
1.4875 4.73485 17.5218
1.42636 4.57789 19.3646
1.52264 4.89653 18.695
1.49469 4.75299 18.2489
1.43203 4.55989 17.8474
1.42588 4.30934 17.6489
1.46935 4.8807 19.9359
1.60516 4.76376 18.0147
1.3826 4.63707 19.5546
1.53561 4.8403 18.7578
1.48049 4.88192 18.5718
1.47426 4.65328 18.8443
1.42136 4.68491 18.0017
1.46029 4.51878 17.7701
1.43089 4.37459 17.7016
1.46412 4.48076 18.0813
1.4397 4.49421 18.0146
1.47085 4.7724 18.8209
1.52569 4.79577 18.2146
1.53333 5.02744 19.5848
1.55738 4.5973 17.8564
1.43042 4.66963 18.1673
1.5039 4.6487 18.7204
1.50595 4.84867 18.7177
1.5237 4.62087 19.6132
1.54574 5.20473 19.9012
1.61824 4.65397 18.5473
1.49445 5.0025 19.1562
1.49417 4.95357 19.5231
1.55209 4.6936 19.5103
1.53608 4.87845 19.4908
1.61169 4.78939 19.3547
1.55732 4.71566 18.3507
1.44371 4.70239 17.9994
1.40023 4.7657 18.9625
1.46487 4.28144 17.8597
1.44506 4.67154 18.749
1.49351 4.54989 17.5779
1.41062 4.77091 18.876
1.53559 4.77821 19.4237
1.5459 4.78633 18.8819
1.47651 4.57537 17.8979
1.42771 4.61874 18.8819
1.52205 4.82681 18.6708
1.49098 4.29153 17.1636
1.38409 4.64962 19.8604
1.62066 4.96337 18.6602
1.46107 4.60473 18.3297
1.46291 4.62664 18.6292
1.4894 4.82694 19.2736
1.50454 4.798 18.5961
1.46886 4.67342 18.6304
1.46795 5.02522 19.8446
1.54497 4.76575 18.0914
1.46467 4.4358 18.3143
1.55012 4.30155 16.9159
1.37457 4.65169 19.254
1.53009 4.83845 18.3473
1.4611 4.63598 18.7382
1.50275 4.55404 18.2277
1.46801 4.76422 19.2284
1.51992 4.73847 18.1975
1.44092 4.59173 18.7201
1.47494 4.81127 19.4918
1.49687 4.96933 19.4908
1.49856 4.72399 18.362
1.50641 4.53619 18.7207
1.51905 4.9286 19.0737
1.50112 4.59602 19.7152
1.51643 4.86937 18.3562
1.46727 4.72284 19.0916
1.45501 4.713 19.0625
1.54055 5.26287 19.3202
1.51821 4.684 20.1767
1.57384 4.80184 18.5255
1.49149 4.83599 19.2893
1.53047 4.83952 20.7874
1.65258 4.78076 19.5322
1.51591 4.78753 19.1811
1.51273 4.63211 17.6432
1.41021 4.44193 18.5569
1.47199 4.76307 18.8593
1.46107 5.15549 20.4309
1.57123 4.70089 18.964
1.51378 4.70954 18.8244
1.47834 4.59672 17.7127
1.41626 4.73042 19.6415
1.55722 4.79537 19.0802
1.50554 4.67591 19.1288
1.46848 4.77345 18.5701
1.47119 4.72708 18.7457
1.47982 4.7306 18.777
1.46394 4.73173 20.3411
1.58251 4.73454 18.2316
1.46749 4.74816 20.1446
1.54506 5.08773 19.063
1.47222 4.88448 19.95
1.55984 4.76784 19.6096
1.56968 5.05522 19.5749
1.56641 5.0076 19.9405
1.57554 5.04513 19.6933
1.59809 4.79816 21.364
1.65687 5.79176 23.7953
1.84704 5.32953 17.6128
1.32886 0 0