# pn-170911/RbIIA-av-KOKB-1280-1959.psd
# Power spectrum* (dif=0,1,2) (really just |FT|^2)
# NOTE: only the first half! (symmetric)
# weeks: 1280-1959
# 33 clock-days, 12 excluded
# PSD: 1441
7046.25 0.247968 0.00888442
244879 4.81047 0.00477759
1.18888e+06 26.6587 0.00539281
228568 6.35746 0.00452751
191650 10.0995 0.00533312
75265.6 6.21613 0.00621953
48387.4 6.5554 0.00584191
27553 4.89877 0.00616746
23049.9 6.81461 0.00681045
20186.5 4.93438 0.00718264
16720.5 6.04024 0.00905666
12353.1 4.75823 0.00684631
11843 4.42002 0.00759288
9747.15 4.93207 0.00934864
8479.81 5.51717 0.0115759
6926.98 5.52161 0.00880809
4746.64 3.46372 0.00977477
5357.91 3.91505 0.00924827
3494.29 3.00475 0.00918424
3030.86 4.69648 0.0122971
3807.78 4.16051 0.0117309
2731.68 3.97537 0.0127414
2680.37 4.27739 0.0127489
2009.59 3.68192 0.0132094
2003.39 3.56581 0.0154713
1832.45 4.19583 0.0159052
2177.43 4.78526 0.0208302
2388.75 6.00565 0.0239663
1629.69 4.47791 0.022094
1494.78 3.87834 0.0235475
2170.68 6.12394 0.0308171
939.783 3.23117 0.0180303
1372.64 5.38522 0.0315428
1228.68 3.9841 0.0247869
1143.43 5.38905 0.0349523
1120.82 3.58116 0.02975
630.708 2.48081 0.0193013
888.605 2.84145 0.0204655
824.177 4.05967 0.0335321
600.912 2.96964 0.0265114
534.15 3.46489 0.0297767
991.356 4.91997 0.0460677
657.661 3.85353 0.0367463
603.709 3.20156 0.0350835
547.589 2.81994 0.0322522
597.998 4.0771 0.0439726
519.907 3.30537 0.0412464
468.304 3.80407 0.04557
657.505 4.72139 0.0604743
592.215 5.605 0.0700456
338.321 3.35139 0.0551314
507.826 3.58496 0.0462519
481.243 3.64586 0.0515857
310.361 2.27806 0.0342885
447.77 4.58107 0.0683559
516.024 4.1085 0.0556462
395.633 4.38495 0.0704821
488.242 4.52779 0.0745121
417.982 3.29577 0.0511607
421.143 4.97929 0.0875622
349.208 3.66351 0.0668751
419.501 4.82134 0.0870689
332.778 3.73453 0.0741769
256.649 3.18024 0.0635333
397.644 5.289 0.108704
273.011 3.62077 0.0785528
227.992 2.53651 0.0547434
255.027 2.71007 0.0662183
214.236 4.55231 0.107519
295.967 4.77492 0.113219
320.768 4.61238 0.111549
319.34 4.74938 0.117818
254.949 5.38074 0.130247
277.37 4.08133 0.108076
218.845 4.97163 0.136088
203.517 3.6654 0.108405
212.878 4.16547 0.116396
225.893 4.19225 0.11571
236.071 4.93585 0.150448
245.831 5.38097 0.15031
234.678 3.90214 0.118367
243.29 4.82168 0.161646
187.847 3.65541 0.112622
170.027 4.55286 0.154348
204.441 4.10315 0.135623
184.577 5.1785 0.172939
203.402 4.58149 0.171965
152.155 3.86404 0.148227
153.364 3.03667 0.114668
134.789 4.1625 0.161517
106.636 2.45149 0.0930767
168.944 4.58191 0.200725
165.426 5.8524 0.223272
168.518 4.88227 0.197102
125.588 3.152 0.140693
180.007 5.33322 0.238362
152.883 4.87506 0.205634
141.257 3.87739 0.181297
124.667 4.25906 0.209132
125.498 3.87363 0.18114
212.369 4.96687 0.242195
112.227 3.77291 0.181751
116.545 4.57326 0.220372
133.735 4.31303 0.215946
88.2654 3.40046 0.18133
89.3514 3.94061 0.208747
124.707 4.05658 0.224636
144.416 5.29547 0.285173
115.235 3.0048 0.166423
93.5775 3.61285 0.210181
118.942 3.69805 0.224613
97.9119 3.66278 0.215902
81.7903 4.41604 0.265659
93.696 3.95283 0.237671
74.3024 3.70696 0.24863
99.1382 4.37849 0.287249
85.1125 3.88914 0.265594
86.5806 3.28241 0.217582
88.7205 3.75096 0.266123
87.4373 3.40757 0.249467
87.5338 3.69741 0.242943
95.406 3.54257 0.227162
107.453 4.75306 0.334731
93.5941 4.51255 0.31122
94.2998 3.92086 0.291114
63.9333 3.9442 0.287114
70.4349 3.40334 0.252058
57.1088 3.72495 0.293361
88.6123 3.45144 0.266418
71.7675 3.49638 0.290286
87.5483 4.30438 0.349531
84.9716 4.09935 0.345596
47.8085 3.00738 0.269522
70.8281 3.40254 0.276681
80.8257 4.27006 0.368944
75.3822 3.95619 0.336968
53.2454 2.78087 0.242383
75.194 3.80449 0.348438
67.4366 4.08492 0.389331
69.7952 3.95726 0.350432
77.9613 4.09534 0.400697
69.3513 4.05158 0.387602
65.325 3.80529 0.373661
53.7174 3.04549 0.298389
69.5155 3.84359 0.385606
43.771 3.46186 0.331204
46.5829 3.65656 0.384108
64.1479 3.25173 0.336507
60.5237 4.34071 0.457265
45.6435 3.7418 0.399694
56.0818 3.70601 0.375956
36.919 2.69386 0.28916
60.6753 5.01245 0.577835
64.1302 5.27844 0.595131
40.7223 4.05604 0.470843
71.1439 5.33853 0.601565
66.6542 5.46993 0.595808
55.3955 4.55837 0.538343
46.5709 3.65176 0.439245
48.4437 2.94453 0.35549
52.1479 3.46543 0.408602
56.9056 4.06772 0.476959
45.8255 3.7362 0.442924
45.6437 3.80698 0.474578
56.6324 5.11364 0.669472
46.1491 3.86355 0.471763
62.6615 5.15421 0.686023
44.0895 3.77975 0.501582
54.245 4.85736 0.608305
34.8652 3.44914 0.505385
52.5516 4.36919 0.579443
40.5362 3.25211 0.456604
36.1068 3.55698 0.547813
51.0222 4.55824 0.626447
35.4862 4.03347 0.592244
51.6149 4.28972 0.616267
43.3094 4.00785 0.590651
47.2784 5.25704 0.787005
31.6749 5.77296 0.880565
42.2816 3.55825 0.514453
34.4305 2.41014 0.424652
42.5521 4.64155 0.664781
48.4542 4.72119 0.73313
39.736 4.52373 0.693462
52.2898 4.12506 0.655059
47.145 4.51219 0.747529
40.2023 4.33908 0.713324
41.8187 4.23912 0.714108
37.5351 3.84073 0.63208
44.4429 5.12547 0.86735
26.5952 3.32434 0.536519
37.4338 4.65054 0.803824
31.7967 4.10788 0.693386
34.3766 4.6133 0.830339
36.8698 4.54399 0.800758
26.3116 3.15265 0.546841
40.3506 5.04034 0.943155
35.0393 4.176 0.685782
35.2319 4.19145 0.805281
27.9369 3.183 0.634734
36.6472 4.78815 0.889172
25.2021 2.60203 0.528849
30.8041 5.1244 0.985551
38.0736 4.28638 0.842522
26.9019 3.20217 0.61714
30.9245 4.52614 0.911269
30.9718 3.96426 0.755196
20.3919 2.89767 0.582443
29.2803 3.35848 0.695774
24.5282 3.90715 0.855171
32.236 3.19495 0.6169
25.9626 4.44084 0.932307
33.5766 4.26082 0.865653
21.7694 2.95141 0.640059
30.1554 2.96849 0.603093
40.3348 4.88406 1.00324
30.4684 4.62786 1.04815
30.6467 4.52762 1.07381
28.8611 4.18621 0.870162
22.7388 3.86388 0.865881
31.3754 3.71869 0.782952
23.7373 3.61232 0.827745
31.1731 5.45269 1.25869
17.5302 3.71553 0.91648
37.3258 5.55123 1.28882
26.1501 4.73194 1.10608
16.0489 3.07585 0.739564
30.0803 4.33934 1.05462
25.8727 4.39425 1.09337
27.678 3.86551 0.894926
28.3991 4.41337 1.09968
30.5525 5.05317 1.27346
15.8612 3.55304 0.895343
20.6945 2.63756 0.726042
27.8317 4.80523 1.29478
23.8203 3.68357 0.939287
21.1153 4.52372 1.15259
17.7539 3.61996 1.01733
19.5848 3.21397 0.822269
23.3428 3.73314 0.938507
21.8892 4.10144 1.20721
21.7482 4.84529 1.30941
17.5778 3.60972 1.04507
28.0666 3.76995 1.02085
21.1726 5.10243 1.3751
26.0682 5.14467 1.49537
24.557 3.98474 1.11074
27.8141 4.23396 1.17433
18.3309 3.56209 0.987581
12.7063 2.94683 0.91044
19.0388 3.20113 0.94885
24.3893 4.69374 1.3212
21.0029 3.7835 1.17946
22.2325 3.33455 1.01843
24.0289 5.00259 1.43097
21.0307 3.16267 1.03322
13.1136 3.14528 0.948903
19.0497 4.66418 1.44357
20.2724 4.55794 1.44958
18.9859 3.313 1.02252
16.5793 3.63349 1.24258
22.0769 4.8411 1.44174
21.02 6.20399 1.91659
17.3241 3.73443 1.20493
22.3303 4.65313 1.60821
19.7507 3.42039 0.988989
23.0397 5.30588 1.79985
20.1488 5.31743 1.83838
31.1657 5.91359 1.92776
16.0148 3.34698 1.14699
27.1623 5.2237 1.73396
13.9667 3.47372 1.11704
20.3876 3.86879 1.25885
17.1709 4.47812 1.62266
19.8766 3.07223 1.10848
13.1139 2.39815 0.910555
17.8869 3.84671 1.25006
13.4261 2.82458 1.04332
18.218 3.62445 1.21505
21.6278 5.67793 2.06826
15.4708 3.07161 1.0884
15.2829 3.83472 1.40325
15.4028 4.24141 1.56636
14.6907 4.41406 1.58355
16.7313 4.35249 1.6834
14.2985 5.15476 2.09378
22.0083 4.31758 1.55269
20.5271 6.15931 2.25582
16.2471 3.88975 1.49164
16.3471 4.29342 1.64215
14.4265 4.2222 1.71096
15.7681 4.84319 1.86391
14.4742 3.30791 1.25129
18.2907 5.11192 2.05917
13.0927 3.60173 1.52492
15.3516 3.45897 1.35027
9.17061 2.6686 1.12231
13.6153 3.42638 1.42393
17.2451 4.33168 1.66196
14.3118 3.73765 1.61209
18.9538 4.65027 1.76827
13.2296 5.77061 2.56443
19.3842 5.00423 2.0951
14.5371 3.98493 1.6698
21.6088 5.85768 2.43642
15.9223 4.68968 1.89229
13.6642 4.25957 1.86445
17.2923 4.36918 1.9017
12.7163 4.40596 2.1089
14.0435 3.99191 1.49322
13.0655 3.3292 1.50155
12.4137 3.60265 1.6123
12.8686 4.81762 2.27339
12.3196 3.29752 1.39001
17.7954 5.28062 2.46472
14.9327 4.69189 2.1306
9.55939 3.09014 1.345
13.1711 4.43947 1.99905
12.3327 3.61419 1.78644
15.2893 3.65703 1.68078
11.182 3.87411 1.79008
7.89498 2.99224 1.43352
14.4902 3.54265 1.6322
14.3654 4.7055 2.19288
15.7674 4.12147 1.94452
14.5177 5.0674 2.48423
10.43 3.41857 1.71027
12.0014 3.36679 1.70537
19.5906 6.7455 3.44056
12.3752 3.92126 1.9071
9.88009 2.71313 1.33722
8.46114 2.74343 1.54638
12.8732 4.84695 2.14538
10.6188 3.72041 1.77801
9.94032 4.34918 2.29173
14.5181 4.81602 2.46548
11.5146 3.69912 1.71638
6.51888 2.06515 1.16191
9.17995 3.00952 1.53755
11.7351 4.22969 2.11435
10.2827 4.02992 2.26376
13.4755 4.6101 2.36964
12.6748 4.64685 2.48028
12.9413 4.0956 2.0683
8.35306 2.97304 1.56525
13.4389 5.28484 2.88258
13.0134 4.37 2.24425
10.0146 4.15842 2.37677
12.6191 5.01794 2.75469
9.48951 3.74241 2.13736
10.5745 4.62155 2.7815
14.0266 4.93393 2.53057
12.028 3.98659 1.98523
11.0808 3.36509 2.10399
11.0515 5.56391 3.10165
10.8683 4.60037 2.32211
12.7076 5.39259 3.07451
10.4565 3.42249 1.89011
10.229 3.3429 2.16567
10.2213 3.5677 1.99006
9.32677 5.15104 3.12368
13.8954 4.81927 3.07186
13.1225 5.10914 2.60642
8.58544 3.49952 2.187
13.0448 5.27677 3.40904
14.1556 5.13742 3.19124
9.63369 4.04823 2.21717
10.1706 4.64862 3.05918
12.9575 4.71813 2.98513
10.5007 4.33137 2.59782
9.62002 4.09567 2.51773
9.70226 4.24762 2.51444
7.48596 4.88361 3.14264
10.6536 3.97287 2.53513
12.3509 4.96551 3.13061
12.6866 4.33001 2.63619
8.40688 4.74677 3.15056
11.2511 4.35014 2.88146
11.7476 4.73145 3.03784
8.99234 3.51497 2.50711
9.2954 4.48271 2.76966
7.30632 5.11533 3.51659
10.5054 4.84933 3.33812
14.5201 4.60738 2.63439
11.5524 5.83313 3.93987
11.3996 4.92352 3.22013
10.3587 5.88907 3.96678
9.18742 4.86628 3.08984
7.93621 4.52441 3.43331
10.1224 4.28113 2.61067
8.53282 4.33086 3.01891
11.217 4.78554 3.24923
8.38881 2.61329 1.86433
8.72879 4.6532 3.48763
9.60409 5.19246 3.63185
9.08588 4.54045 3.23611
12.0812 6.42981 4.23862
8.52685 4.71096 3.1251
10.4933 4.33619 3.10532
10.9109 4.10299 2.88995
9.22359 5.02508 3.46759
6.46287 3.86063 2.68589
7.46617 4.06837 2.98347
9.75396 5.17881 3.62812
7.49521 4.5535 3.37978
10.5118 4.59016 3.13126
10.317 5.69574 4.84001
11.8016 5.06 3.43787
9.44734 4.61901 3.56832
6.95208 4.49833 3.33396
8.38632 4.14625 3.22856
8.69064 4.71301 3.4563
10.2782 5.50592 4.14158
12.0936 4.94852 3.55221
8.1899 4.92172 3.93967
9.32674 5.54466 4.41905
8.60934 4.78247 3.59861
8.2291 4.09854 2.87359
6.43715 3.51068 2.71091
8.68389 4.98179 4.0083
6.25493 4.22536 3.6575
8.70603 5.32788 3.96087
8.14849 4.57445 3.62376
9.85989 4.77488 3.64661
9.87868 5.67399 4.59598
10.781 6.45419 4.68311
7.87189 4.31304 3.94078
12.0901 7.45931 5.80014
6.83398 4.38745 4.10252
9.00052 4.82875 3.76519
9.46782 4.75237 3.3117
10.5563 7.30669 6.66877
7.67915 4.55149 2.99498
7.16264 3.67414 2.83366
6.13103 4.53386 4.35768
11.2988 5.45305 4.01756
7.16771 5.11244 4.38881
7.82968 5.04769 4.61991
8.97535 4.37707 3.38264
8.42902 4.8982 4.64896
7.63046 4.08431 3.72011
6.51114 4.4375 4.41997
9.99023 5.85427 4.51019
6.15692 4.31386 3.85995
5.35211 3.868 3.29097
7.52876 3.52015 3.55639
6.64987 5.10407 4.39566
8.73673 4.76365 3.77798
6.11002 4.05677 3.76653
6.48318 3.73094 2.99713
5.77788 3.9536 3.35132
7.07889 6.68515 5.78334
5.07777 3.24471 3.19507
6.84415 4.10193 3.45741
7.23979 5.52646 5.75587
6.82626 4.37234 3.98578
8.89105 4.75453 4.066
6.56475 4.23746 3.7923
7.1063 4.14666 4.23375
9.89146 5.53243 5.1007
6.25102 3.1406 2.57682
7.00716 4.63584 4.33825
7.36603 4.11509 3.54782
5.96798 3.54809 3.44716
8.23009 5.02884 4.6969
6.4323 4.41783 4.24406
7.6642 4.6791 4.21164
6.81647 3.7392 3.95845
6.88214 4.27539 3.85806
5.30031 3.51463 3.55626
7.38548 4.56163 4.34747
8.21837 4.47614 3.69302
6.65421 5.33005 5.32539
6.89579 3.85283 3.61565
5.90653 3.73374 3.31647
4.56903 3.48717 3.69243
5.59178 4.74058 5.2556
6.22731 4.48252 4.69326
6.14846 4.91218 4.39123
7.13487 4.6558 4.83083
8.17461 5.90389 6.43903
8.83521 5.06078 4.31803
7.17572 3.97317 3.36521
5.34992 5.08501 5.26515
6.8981 4.17237 4.16114
6.31877 4.24051 4.12208
8.12967 6.22029 6.53634
5.30366 5.15743 5.77142
7.91326 4.74334 4.66435
5.15556 3.80149 3.7209
7.77871 6.44893 7.41711
8.43978 5.88378 5.53407
8.15451 4.81562 5.43848
7.77053 5.47116 5.14476
5.98474 4.09769 4.57154
5.42065 4.32439 5.17638
7.67248 4.70987 4.62711
5.8611 5.38914 5.72898
5.50534 5.96029 7.29204
6.49453 4.81369 4.69044
8.9049 5.59682 5.93717
4.64067 3.01416 3.59754
6.09221 4.83454 5.74024
6.13197 4.91525 5.34985
4.69384 2.85294 2.98391
5.83464 4.51584 5.10694
5.70381 4.67704 4.94625
4.7831 3.05468 3.53627
5.12682 4.39134 4.75237
5.31769 3.78906 4.08517
5.35957 5.42901 6.1803
6.47763 5.39395 6.41463
4.94363 2.91166 3.40028
5.66182 4.30407 4.36012
5.35703 3.76804 4.60463
7.28811 4.29958 4.59211
4.76975 3.12404 3.57367
7.0266 5.17598 5.76631
4.75921 4.11103 4.75621
6.32873 4.97409 5.71337
5.73976 3.76953 4.55561
5.54355 5.97575 6.64288
6.95606 5.40359 6.28031
6.25324 6.28166 8.20762
5.80745 4.32291 5.11746
7.17687 5.05674 5.94294
8.02669 5.8681 6.46911
6.43376 5.7984 7.7087
5.65157 4.76735 4.89272
4.54153 4.29442 5.60066
6.3317 6.5483 8.65198
7.74542 4.56574 4.70407
6.09907 5.27336 5.68974
5.72113 4.8487 5.83972
5.86236 4.44195 5.63005
5.2075 4.71026 5.71227
5.61788 4.67112 5.51949
6.09389 5.27463 6.66747
5.72232 4.10796 4.31503
5.47813 4.05865 4.70427
5.34924 4.80848 6.72797
4.01897 5.08808 6.44531
5.48843 4.15859 5.08268
6.355 5.78125 6.62562
5.62758 4.22558 5.36011
4.13302 3.0656 3.87719
5.11372 4.41252 6.07325
6.56591 4.35441 5.83136
6.34289 4.92728 5.18399
4.88491 5.59882 7.52202
5.96289 5.47157 6.69479
4.79411 4.70009 6.70883
5.25419 3.97969 5.43167
4.20067 3.94197 4.65286
5.17535 4.35403 5.77424
7.48642 5.75541 6.63846
4.58524 5.74231 7.38905
5.82335 4.94105 7.4414
6.25858 4.21931 5.38137
5.79109 4.29061 5.38348
4.76114 4.16439 5.45265
7.02465 5.59454 6.99985
7.55459 6.20458 7.23798
5.87115 4.64889 6.86624
4.2307 5.10889 8.43343
6.50473 4.8294 5.3956
5.21047 5.82505 7.25161
4.90384 4.88211 6.65975
5.40057 5.36967 7.6083
5.49412 4.35843 5.74211
5.3547 4.8535 6.56413
5.67742 4.65392 6.32623
3.82054 3.94821 5.67317
4.76475 4.11128 6.12091
7.52729 6.05346 7.58102
6.23383 6.29048 8.39218
5.21575 6.66469 9.74453
7.66509 6.6222 8.30807
4.90639 4.42491 6.53056
4.55949 5.68668 7.9551
4.66099 3.65117 4.85371
4.91947 5.02933 7.21808
6.45305 5.82268 8.67345
5.28831 4.22158 5.07514
4.68223 4.4807 6.80037
4.59509 5.43383 8.45404
5.43637 4.42742 5.97312
6.42495 5.92899 8.1846
4.17379 4.10402 6.3005
5.72496 6.05566 8.40062
5.72973 5.78732 7.82984
4.98675 4.52817 6.32904
4.33387 4.99254 7.99993
7.11148 5.58619 8.12443
4.37439 4.58124 5.79833
3.05749 4.07914 5.93806
3.93728 4.72966 7.31412
4.43777 3.51434 6.16871
4.82069 5.3251 8.15083
4.54063 5.15291 7.16277
5.37608 5.74995 8.6416
4.96828 6.58578 9.90234
4.03096 4.01739 7.28058
6.27984 7.5571 8.76498
3.42693 3.42188 5.81
4.61157 6.25113 11.2145
6.95374 6.37324 8.53321
5.26522 7.39933 11.203
5.58283 6.4004 10.1764
4.59033 4.86941 7.57793
3.79487 5.22339 7.63787
5.2258 5.9494 9.13921
6.61093 7.20434 9.84084
5.23285 6.76602 11.7709
4.83499 4.87075 7.79027
5.23446 4.70073 7.08969
6.98339 8.55661 11.6699
4.13877 4.10585 7.75363
6.71542 7.16932 11.1055
3.93053 6.4237 10.2851
6.09724 5.95055 10.3672
5.10001 5.52364 8.43224
6.6041 6.90326 9.39915
4.13002 5.27212 7.66035
4.24245 4.361 7.88985
5.49815 5.56126 10.0849
5.97901 8.13375 10.6605
3.91416 3.3234 5.52146
4.12853 5.71657 9.09732
4.32519 3.76845 7.91719
5.46796 4.98348 7.39015
4.03872 4.06577 6.20759
4.38091 5.98644 9.98323
5.21282 5.61159 8.60147
5.16746 6.61367 11.0592
5.05813 5.24037 8.33934
4.75099 5.3335 8.82425
4.78104 5.3468 9.13232
5.64041 5.46458 8.67612
5.05095 6.155 11.1321
4.67309 5.4564 7.50555
3.19136 3.33975 6.3189
4.03086 5.56369 8.25315
5.04653 5.76475 10.3882
5.02207 5.77707 8.57792
3.58215 4.55173 8.7165
4.73997 4.96084 7.34988
3.20789 4.09564 7.51718
4.00435 4.6435 7.00966
2.96824 5.38999 8.47415
3.68715 5.59265 11.1299
4.42856 4.86081 8.0388
4.2243 4.24298 7.00235
3.81406 5.57589 9.75665
3.55013 5.17359 10.2778
5.31453 5.53552 8.28495
3.81871 4.29545 8.53015
4.15502 5.31435 8.63926
5.02245 5.03796 7.24454
3.59137 5.68826 11.378
4.41091 4.19698 8.83545
5.04997 5.391 8.49409
3.48144 4.36271 7.30701
4.20395 5.18941 7.29628
3.3297 3.76077 7.07089
2.92177 4.20199 6.40807
3.5847 6.59904 12.0307
5.72823 5.73666 9.1603
4.30249 4.91809 9.68894
5.1111 5.66694 9.62756
3.61716 5.66758 10.4487
3.66336 5.84245 10.3446
5.79046 6.60696 13.2102
4.60495 4.14972 6.14169
4.10831 5.51814 9.71957
4.36823 4.80035 8.37543
3.4807 5.25726 10.2359
3.62098 6.48326 12.5202
4.26358 5.21101 8.58551
4.49155 5.72529 9.31935
2.91701 3.19536 6.00687
3.65943 4.59159 8.86713
3.9464 4.31957 9.28632
3.16981 5.72393 12.1865
4.38316 5.76153 11.3642
4.64245 7.78046 13.1212
3.94001 5.70459 9.51887
3.45567 5.22754 10.6477
3.84711 7.21319 14.7568
6.39243 7.44018 13.3498
4.66867 6.61853 11.7654
4.00392 5.5706 10.1693
3.77499 6.066 10.0708
4.98714 5.2032 7.98391
3.30568 4.75045 9.56529
4.2012 4.42 8.60739
4.51307 6.89456 14.2057
4.34756 5.24822 9.82933
3.63555 5.42875 9.24935
3.04751 4.50273 10.8153
4.14477 5.4822 10.7445
3.72481 7.6587 13.1066
4.05747 6.58863 13.5922
4.8842 6.14369 12.2249
4.95338 6.08785 11.0337
4.99292 6.37297 12.3913
5.49217 8.60816 14.8712
2.88946 5.64925 11.5847
3.16067 4.79886 9.14763
3.04196 3.89895 9.79462
4.90188 8.61319 16.0505
3.54399 4.90799 10.1545
4.24048 5.552 9.973
2.78973 6.59927 17.038
5.08629 5.03645 9.94456
4.86557 6.30939 10.9056
4.347 6.78419 14.1881
4.4135 5.03522 10.5853
5.29928 6.50569 9.94595
4.19111 6.44568 13.7527
4.46044 5.47095 11.7904
4.02742 4.95385 8.6483
4.14632 5.67785 12.8693
4.31807 6.39745 11.5866
3.92258 6.4038 13.0273
3.99863 6.2974 14.3726
3.88077 5.70703 11.0911
4.16768 6.48292 10.2326
2.98079 5.85698 12.8113
3.29744 5.59568 11.4197
3.55895 4.84753 9.04686
3.31605 4.5307 9.20722
3.38635 5.70234 12.6965
5.28998 9.04943 17.887
3.27087 4.42169 10.9229
3.89423 4.42215 8.0261
4.03165 6.37039 13.9861
3.93072 6.76321 15.1371
5.22943 7.01334 12.6191
4.27429 6.00325 13.2426
2.99297 5.81782 12.1324
3.01887 3.39143 7.74501
4.46523 6.01819 10.1311
2.91751 4.51542 10.6547
3.02118 6.19611 10.6193
3.37032 5.75999 14.9251
4.92222 5.53573 10.5576
3.61669 5.1197 11.593
4.08883 6.02251 13.2082
3.28039 4.31184 9.46953
3.44402 6.36159 13.6026
4.45401 6.71634 14.1594
3.5286 4.78345 8.83485
2.75421 5.05001 10.514
3.46492 6.63358 12.256
3.1601 6.35882 14.1219
3.98471 5.17956 14.788
4.12008 4.8966 10.1901
4.15972 6.71752 15.8127
4.25527 6.72023 12.4634
3.36822 5.61646 15.6468
4.11732 6.48248 12.4735
3.77426 6.96597 15.2365
3.98205 5.9858 12.1046
3.26629 4.44125 10.8262
4.54221 5.67747 11.6057
3.52706 6.50611 12.9709
3.2899 5.52333 10.9173
3.04735 4.64559 11.9291
2.12943 4.02719 9.62957
2.65606 3.58048 12.0259
5.84393 7.20832 14.2456
3.50193 5.31005 10.5893
4.07996 4.95568 10.0274
2.29339 4.38842 10.8507
2.59038 4.52798 13.1373
3.45395 5.42983 10.7539
4.90484 6.87344 13.129
3.52842 6.32579 13.471
3.26701 6.78738 14.4306
4.53246 7.61159 16.2984
3.71406 5.90047 15.7764
2.86767 5.80512 13.2878
4.32304 6.84304 18.0461
4.62658 7.99847 14.5155
3.30606 6.32641 16.7414
3.97854 6.2903 11.4502
2.56618 5.40015 12.7257
3.19649 7.18667 18.1592
3.75384 6.08377 15.0935
3.77473 9.19806 18.9634
2.94328 5.00022 16.1062
3.97032 6.3086 14.5673
3.69457 5.4922 11.5394
3.66976 7.28613 13.957
3.75508 6.086 13.8501
3.05145 4.60292 10.0323
3.65658 5.6497 14.2803
3.53526 6.30722 12.4518
3.18059 5.21808 11.5949
3.03363 6.01053 15.4743
3.45259 6.11417 14.5972
3.25479 5.65633 14.4382
3.39038 6.37534 14.1281
3.28495 5.80766 14.0028
4.09336 5.69566 13.386
3.3981 7.34395 15.0704
2.5609 4.58591 11.6765
3.00284 5.89887 15.5844
2.73187 7.51757 19.1878
4.478 4.72311 9.32588
2.7069 5.05566 12.8201
4.00409 5.98096 12.3873
3.72207 5.89176 14.5184
2.99637 6.43465 16.9812
3.0491 5.49982 13.6355
2.95421 6.8344 15.9337
3.27633 5.51883 17.9283
4.20507 5.86376 14.1382
3.93971 8.83005 15.5708
3.18741 7.36043 18.8693
3.24953 4.4112 16.6061
4.79163 7.34305 11.928
3.22328 6.33626 18.4565
4.08003 6.66532 13.2266
3.31409 6.06136 15.1872
2.36414 5.22197 16.9894
2.97339 4.8411 12.8252
3.69074 7.70544 17.7345
4.04048 6.10523 12.657
3.04287 6.30859 16.0728
3.30031 5.71916 14.4434
3.72099 6.19519 13.734
2.97504 5.84803 12.4612
2.08755 4.76195 14.9863
3.83015 5.1971 10.0027
2.80672 8.2608 19.4834
3.21411 6.50121 16.1919
3.62417 4.94437 12.2344
2.5774 5.9372 12.2986
2.72049 6.49885 21.986
3.78925 6.78462 16.8453
3.51106 7.30524 14.7376
2.38859 6.19932 16.9759
2.71707 4.99095 14.4617
3.21222 6.86024 17.8925
4.08519 7.33025 19.0258
3.27702 6.75297 18.9038
3.03354 4.67355 13.7006
4.3522 6.98045 13.9098
3.01237 5.67295 16.4529
2.95359 5.31682 12.306
2.61806 4.98491 16.8531
4.10821 7.75968 17.2752
3.06268 6.22529 18.3575
3.7144 7.20394 18.3904
4.66399 8.98958 21.8383
3.87202 5.87038 15.2321
2.60386 5.61377 13.1018
2.98551 5.39478 19.267
3.76894 8.18139 18.9851
2.55798 5.15286 14.5859
3.63263 9.10798 22.4184
3.33662 6.42885 21.2901
4.03396 5.56291 13.1937
3.37584 6.37625 15.788
2.64944 7.03767 18.4106
3.71604 8.42811 22.1483
3.81109 7.17666 19.4393
3.56768 5.77228 13.8308
3.40922 8.94148 26.3038
4.10006 4.84935 15.7974
5.05738 7.30533 16.5066
3.25076 7.20857 24.0609
4.57041 9.32706 20.0231
3.55573 8.84999 23.2407
4.27616 6.00524 12.6507
2.12652 5.17725 17.474
3.57507 6.15791 13.2106
2.50108 5.84921 15.6952
3.81784 8.01864 19.9365
3.68989 7.09356 18.8878
3.1664 7.11605 19.7997
2.60663 6.01146 14.6381
2.12358 5.02447 18.3782
4.32248 6.88211 14.3199
3.07141 5.5596 15.0149
3.15028 4.68686 13.6898
3.20278 6.29734 15.1802
2.93874 6.69419 15.4743
2.82138 6.26117 18.9927
2.78967 6.32303 16.6078
2.82435 4.61071 18.1804
3.72997 6.04607 15.3303
3.85292 5.77449 12.7421
3.15194 7.34546 20.7638
4.39018 8.57307 24.9288
2.886 6.1919 14.0475
2.24354 4.65596 13.3232
2.79088 3.65621 10.6039
3.19928 5.5406 12.8076
2.73547 4.58392 11.1285
2.8628 5.19504 13.993
3.46234 8.29279 20.4055
2.14261 5.01717 19.4795
3.36068 7.76664 20.4408
3.68265 6.33836 16.5258
2.17877 4.69013 14.6938
2.95734 7.03874 20.8655
3.14082 7.58755 20.9593
4.09291 6.29984 17.4694
2.95414 6.91567 19.7074
3.54861 5.54627 13.7126
2.36478 5.37962 18.1957
3.52306 7.35466 21.2387
2.54609 5.94896 12.3458
3.16717 6.4654 17.5981
1.78114 6.46882 22.142
3.51112 6.80587 17.1608
2.22765 6.47321 19.9859
3.69482 7.8272 20.719
2.9911 6.39291 21.0968
2.71267 6.15996 16.0022
2.8981 4.6423 16.7317
4.08858 8.23607 22.5309
3.60028 7.92118 21.8834
3.22722 6.01149 19.5978
3.37135 6.85125 14.9684
2.27276 5.15202 18.9296
3.58463 6.34057 19.2066
3.20843 5.84594 13.8701
2.72664 6.18804 17.3911
2.93334 6.05063 20.2298
2.87918 5.27186 13.287
2.6427 4.84694 15.8866
2.96356 7.0357 17.1137
2.13464 6.06407 23.0229
3.57003 8.02143 18.1999
2.95064 7.71159 20.7037
3.17756 7.33242 23.0982
3.07393 5.3463 13.8105
2.91092 5.98108 19.9776
2.8715 6.41622 20.4201
4.48655 9.18302 19.1374
2.66289 7.14965 22.1104
3.12064 6.43927 19.0782
3.18742 8.39888 20.8361
2.85634 5.76932 20.3117
2.70811 6.69153 21.5843
3.34049 7.01996 21.7201
2.85705 5.84273 19.446
3.33527 6.67045 21.8956
3.52388 6.98359 16.8814
2.23713 4.99518 17.4761
3.01092 7.12976 21.136
2.7348 7.89202 19.5116
2.32462 4.84119 18.5915
3.05216 6.89359 20.8938
2.71156 6.43932 20.9111
3.5009 7.12731 22.8999
3.37102 7.8886 20.8402
3.63578 6.0135 19.1178
3.13098 6.65109 20.8747
2.28927 6.31266 19.4361
3.46791 6.95976 19.731
3.0915 6.24271 18.7945
2.6331 5.33633 20.7042
3.15484 7.18139 16.094
2.64959 6.5447 19.2696
2.38935 5.98556 16.5907
2.34178 6.6972 20.6954
2.73643 4.88571 16.9556
2.61578 4.99392 18.3743
2.71069 6.39693 17.8005
3.20296 10.5008 28.4438
3.29024 8.16196 23.6291
2.97803 6.02483 17.7154
2.14169 5.53084 17.3703
2.9435 6.47738 21.1713
3.15422 7.99598 27.5651
3.03504 4.79971 13.2166
2.46811 7.40854 22.0131
2.53484 7.33604 26.2845
4.16397 7.66235 22.3429
3.09962 8.94385 22.937
2.82526 6.84535 22.0295
2.69807 6.38345 21.2133
2.49254 5.29939 16.9215
3.11556 7.89576 26.1225
3.39577 5.76379 17.7104
1.97103 6.1744 17.1275
2.83157 6.23065 19.7671
3.30665 8.57248 32.5816
3.48853 7.56377 23.9951
2.73269 5.67196 14.1092
1.96584 6.07326 19.8615
2.18114 6.39697 25.4359
3.51393 6.10644 20.133
2.82003 5.65062 18.81
2.79974 7.97364 21.1231
3.04445 4.88203 17.6872
3.22863 7.69637 24.5565
3.06993 6.54965 16.8142
2.18977 7.70167 27.0373
3.54233 9.19241 25.784
2.67507 6.72782 22.6478
2.80513 5.42679 16.5669
2.73348 5.65841 19.0605
3.52891 7.26119 15.4668
1.93995 5.86865 18.5244
1.89029 5.2314 19.7932
3.60443 7.61385 24.9519
2.4703 5.56541 17.289
2.56898 6.48238 19.596
3.34985 9.95342 25.633
2.44765 5.12479 20.4108
3.11495 7.56807 25.2171
2.53184 4.8602 18.5804
2.89939 7.44778 18.0805
2.63708 7.93115 24.2661
2.47031 5.43388 15.1862
2.14039 4.18199 12.3497
1.67435 4.81944 16.2501
1.90719 6.56012 29.8268
4.67176 9.60307 25.8253
2.34668 5.73121 22.8829
3.15822 6.01037 13.6795
1.86405 5.36975 20.9345
2.58047 7.18923 24.8949
2.51137 6.15647 16.1088
1.94339 3.44481 14.9371
2.29856 5.80151 21.5578
3.53206 8.73503 20.1016
2.51871 6.31775 20.4503
2.80687 8.05568 28.7082
2.40286 5.85317 25.2811
2.88313 8.44108 30.6656
3.57093 7.12436 26.2772
3.00215 6.25983 23.9739
2.88865 6.36537 19.2285
2.95448 7.97884 21.1569
2.21495 5.90869 24.6508
2.85705 6.0381 20.5956
2.46901 5.8866 20.2917
2.9848 8.10804 27.0741
2.1425 6.64953 23.7531
3.25571 6.97343 16.4151
2.15109 7.54715 21.3609
2.23528 6.0909 19.6214
2.41856 4.8799 19.9593
2.3878 6.48861 27.2276
3.77815 6.83896 18.2942
2.29021 6.05606 16.1657
1.70494 4.8418 18.2379
2.30639 6.68582 28.0138
3.41197 5.45224 16.4682
3.23096 7.52356 23.6064
2.68245 6.36196 26.0753
3.0393 9.26105 26.1792
3.20022 7.69726 21.2692
2.66004 6.61344 25.709
3.26389 7.0672 20.9392
2.49446 7.3614 27.9687
3.67691 8.66829 29.5992
2.79811 6.82797 24.3288
2.99567 7.10676 20.4959
2.40449 9.6705 28.4155
3.098 8.3367 23.6503
2.01164 6.7897 26.5629
3.87434 7.64198 28.8055
3.28705 8.6902 25.0474
2.4568 7.06424 21.5237
2.21133 5.0533 16.3146
1.85262 5.69967 23.5065
2.71766 7.09051 21.0304
1.85617 6.5077 25.2489
3.02612 7.71533 26.8912
2.78375 7.10101 22.1558
2.17664 7.51305 22.2888
2.35445 5.79162 26.3264
3.26171 8.25987 27.5681
3.02818 6.59004 23.4502
3.1576 8.98434 28.0171
2.82193 7.22201 20.7172
2.15065 5.07921 19.8436
2.69744 8.95005 27.0495
2.69185 5.68467 22.1873
3.17607 9.86163 31.6607
3.01269 6.16524 23.86
2.37916 5.45374 17.044
2.04789 5.17587 17.9918
2.55289 5.02303 14.1317
1.91332 5.54729 22.3417
2.76271 6.72219 25.0876
2.66028 6.62976 25.1792
2.77859 8.07873 29.6052
3.45552 8.67044 25.2441
2.05952 5.78837 23.4716
2.39934 7.75111 22.9066
2.69884 6.26412 19.3736
2.14909 6.93324 29.9738
2.61095 7.57119 22.731
2.80948 5.87836 20.197
2.66395 8.38785 28.6151
2.34525 4.79677 15.2541
1.96874 6.29531 28.7962
2.79334 5.94364 17.8383
2.37725 5.76401 17.8567
2.69621 9.53741 32.6901
2.53188 6.67689 27.2477
2.40511 6.96509 28.0787
2.64031 8.06053 30.3646
3.30078 9.03937 23.0389
2.14059 8.2346 31.2478
3.69913 10.0449 38.8663
3.65368 5.42635 14.6743
2.50657 8.0492 25.8493
2.55175 5.85239 21.8283
2.89624 8.00424 22.7393
2.09726 6.79551 27.5961
2.95621 9.66299 37.1163
2.69557 5.31468 27.6019
2.88752 8.65947 22.1295
2.1071 7.64472 27.2218
2.55361 9.05295 37.0924
3.65805 6.8402 22.9734
2.45716 7.3668 26.7951
2.78622 8.9645 28.5258
2.97067 8.89126 29.076
2.42538 7.3819 31.0483
3.27541 6.79143 21.0397
1.89032 4.93411 20.6684
2.65595 7.60785 25.717
2.29743 7.32318 21.6352
2.06499 7.1627 24.9877
2.79151 5.2479 21.6613
1.98698 6.15752 20.5458
1.77068 6.2444 21.6307
2.2617 5.98901 23.3367
2.64192 7.61191 29.8689
2.50375 5.64209 13.7493
1.78705 6.50388 27.7475
2.85329 6.3874 29.1762
3.21931 9.43207 27.3242
2.55461 4.7263 21.3597
2.70549 6.9203 25.5781
2.49152 6.37175 19.5891
2.21734 5.72648 20.3183
1.8552 6.35126 22.8444
2.88879 9.6629 32.8897
2.36512 6.43285 22.9332
2.38499 6.54751 24.4227
2.50746 6.81637 29.1594
3.14253 8.43942 25.6776
1.93078 7.04885 26.1331
2.48588 6.28008 22.0779
2.4057 8.23149 35.0692
3.15421 5.99695 24.643
2.72062 6.05971 18.6374
2.39359 7.85093 22.698
2.05802 5.45838 24.093
2.26081 7.65965 26.6379
2.75063 6.34279 19.2374
2.01934 6.56821 28.988
3.47134 8.10175 22.8837
2.13403 5.8853 29.1756
2.97168 7.82633 35.792
2.86666 7.79105 23.9654
2.00075 8.11639 27.7268
2.49329 6.77965 28.2985
2.92152 6.83043 28.2849
2.33759 6.7767 25.8708
3.02646 8.85814 26.4201
2.9501 9.0409 29.6234
2.88531 7.16379 29.2996
2.87875 6.23503 18.1463
1.89265 6.49357 29.6038
3.11601 10.8901 36.3904
2.6496 9.71453 35.375
2.31489 11.1716 35.2668
2.60972 6.743 30.4161
3.28338 5.70735 18.8708
2.11212 7.91873 33.7422
3.05153 7.85345 27.5971
3.01451 8.53422 31.3871
2.5511 8.16105 25.8209
2.18836 5.32638 19.9122
1.71596 6.61217 24.3911
2.42689 6.72383 29.7929
2.65929 7.562 33.3122
3.156 8.79343 30.7676
3.59584 9.88241 34.4966
2.35734 6.77766 24.6513
1.82213 6.90981 22.8598
2.26415 6.47702 19.7875
1.5274 6.43188 31.1127
2.62962 6.27822 28.1946
3.1402 6.5283 27.1837
3.72152 14.607 42.2729
2.60127 6.24632 21.8337
2.16987 5.66294 24.6183
2.2198 7.00965 29.0899
2.7215 8.12964 33.5164
3.17551 6.10234 16.0182
1.67811 7.21293 34.5191
3.03409 7.16398 23.8325
2.28236 8.11197 31.1415
2.55451 7.19179 20.6904
2.12674 6.51841 32.6398
3.32195 9.22956 38.4186
3.51251 9.38737 30.3526
3.01508 6.75951 21.2966
2.27668 8.04769 29.255
2.84595 9.14092 42.7688
2.84155 8.02864 37.7504
3.15414 12.0174 33.7564
2.14743 6.41223 20.6393
1.90935 6.86881 30.9815
2.94227 5.44406 28.0955
3.10339 11.5356 38.3072
3.33755 7.5208 22.7123
1.82767 6.19964 28.9293
2.29124 6.85117 25.1942
2.47292 6.17255 16.6953
1.66541 8.1565 25.2766
2.25064 7.31576 34.9545
2.25597 8.89896 33.1119
2.95084 7.4833 31.8398
2.87195 8.65222 27.8657
2.30588 6.36774 29.9239
3.09727 8.5702 28.3624
1.81711 5.88294 27.8617
2.41747 6.76173 26.8481
2.51657 7.87056 25.3599
2.69462 6.97654 17.2802
1.92289 6.66518 30.1454
2.59197 5.68767 24.7727
2.09889 7.00863 29.6042
3.09228 7.21063 24.3958
2.25684 10.8119 41.5281
3.07354 9.97114 40.3937
3.3337 9.19456 36.7421
3.50129 7.18778 19.737
2.23469 6.36481 28.994
2.54351 6.74987 26.8721
2.28105 5.6403 22.6584
2.23518 7.70017 29.472
2.17194 7.86599 25.2022
2.26506 6.93043 29.038
2.20317 6.63687 30.2831
3.20488 9.06588 21.4645
1.75724 7.01324 34.8849
2.44648 6.62918 18.1352
1.58685 4.33718 19.5435
1.57511 6.0396 23.1245
1.64841 4.96597 29.9142
2.6329 7.75944 34.8443
2.9309 16.3339 48.1298
3.75899 8.51948 31.5257
3.08338 6.15405 24.2689
2.29883 5.74479 27.9673
2.29418 6.27188 27.5344
2.48907 9.08315 34.7165
2.68223 8.36654 25.9668
2.2083 7.25009 37.5
3.05566 8.69819 24.0779
2.37449 5.65986 21.0376
1.99878 6.49065 28.3896
2.08599 6.32699 22.9307
1.86299 6.64741 29.6246
2.71543 7.00898 29.9978
2.3631 5.85045 17.4378
1.57944 6.28948 28.7987
2.39048 7.27918 24.4094
1.93642 8.1462 37.2502
2.45755 8.08931 35.7193
3.02143 8.45242 28.544
2.29479 9.3004 39.6839
3.22434 7.52715 29.0386
2.30687 8.46947 23.5002
1.99432 7.196 32.0618
3.01286 8.39733 32.5383
2.12632 8.11043 38.7315
2.78978 9.73511 33.1069
2.46469 7.79458 26.9958
2.12559 7.80234 23.9435
1.87374 6.48576 30.3368
2.04274 7.44406 35.4801
2.73395 7.50458 24.8374
1.93636 8.97713 30.9837
2.19547 8.40493 33.3493
2.68656 5.67144 26.6683
2.2508 8.97577 35.1883
3.04791 8.1173 31.0407
2.69298 5.85561 19.2641
1.78945 7.74157 32.271
2.18587 7.41697 31.2261
2.70683 7.54266 28.0033
2.51876 9.3693 38.0319
3.0334 7.58575 24.7359
2.33938 5.8779 20.383
2.17989 6.61159 27.0225
2.71197 8.43655 32.0255
2.52301 9.36728 34.7473
2.80561 8.89645 31.1576
2.9421 6.33196 29.6864
2.72542 9.71872 33.1102
2.77392 5.8889 28.1997
2.63648 6.7614 30.9115
2.96696 9.66057 32.1932
2.62875 5.03983 20.6583
2.12559 5.74321 19.9982
2.12694 5.90223 24.8986
2.19158 8.18577 24.447
2.11277 5.91391 28.4766
2.39151 8.33838 33.4827
2.44479 7.85955 30.8941
2.48221 6.88142 28.54
2.52468 6.82135 23.9403
2.2211 5.44766 22.4794
1.78246 6.15735 25.38
2.53396 5.25308 32.5184
2.64085 7.56695 21.5186
2.04728 6.63526 31.0078
2.47572 6.45165 21.818
1.8836 6.5302 31.481
2.59592 7.38456 24.7744
2.40628 5.27102 27.7712
2.79027 9.03608 30.0325
2.66285 6.19396 18.9133
2.01109 6.55517 23.8283
1.81884 8.00909 39.4818
3.45662 8.94236 27.9747
1.46308 6.68467 34.0201
3.27237 7.96726 30.0819
2.25676 6.96143 32.0863
2.57518 5.65571 18.6337
1.79599 9.67325 38.9131
2.60123 7.10531 25.9731
2.52039 6.43266 25.6307
1.89575 4.38525 25.1701
1.97795 8.39625 27.5263
1.71073 5.97073 21.5923
2.13553 5.6969 27.1818
2.35545 8.6761 42.3372
2.75095 7.92458 22.7662
1.9071 9.34934 30.1862
2.30675 7.09626 27.3144
2.76305 7.92758 43.1792
3.65811 8.48775 22.1199
1.77134 7.47465 28.4055
2.27116 8.80879 38.7873
3.05597 8.17094 38.7532
3.00592 10.7662 30.7341
2.49763 8.7893 32.1591
3.052 5.97904 26.2854
2.09187 9.62192 32.491
2.76024 5.30679 21.3683
2.14757 7.11081 26.5622
2.54564 6.02394 21.0554
2.06848 5.73552 23.4932
2.14865 5.06734 19.5505
1.28944 6.18727 29.5303
2.60737 6.08045 21.4025
2.09824 7.72829 32.9263
2.35162 6.45636 26.4724
2.12267 7.2247 27.5163
2.06795 7.4535 38.9839
3.59057 7.33247 26.1888
1.93065 6.50689 31.6845
2.8101 6.69004 23.7654
1.75597 5.69499 16.6138
1.48374 5.93961 36.2658
2.86937 9.02615 31.8885
2.61628 7.03512 27.593
2.49703 8.7624 25.6363
2.30912 7.0358 37.267
2.91159 7.19876 21.0658
1.55943 6.58769 31.7144
2.9207 7.22061 29.4692
2.2013 3.73551 21.9032
2.0402 7.65845 29.019
1.95636 6.95018 29.9137
1.68021 9.56319 47.9969
2.9536 10.0795 20.0269
1.56064 7.29453 28.8526
2.52195 6.29527 26.677
2.65529 7.0624 28.6904
2.15006 5.92767 20.3424
1.97795 7.36089 34.1416
2.69609 7.98943 27.5243
2.09322 6.8913 32.5253
2.95043 8.72494 28.1894
2.07681 7.04045 30.1016
2.70697 5.91513 22.2199
1.53454 6.55644 19.7674
2.04063 4.6006 21.4291
1.75424 8.42605 39.6487
3.58903 9.80662 37.4208
3.39161 5.74306 24.0183
2.22833 9.02956 37.1136
2.35631 9.32726 26.4254
2.03095 5.90001 24.9158
1.87197 6.50877 26.7043
1.74522 5.98281 28.3901
2.22857 8.18431 31.9287
2.62276 8.83133 22.235
1.71911 5.55114 31.6577
2.7493 7.20263 36.7591
3.06781 8.28522 25.3271
2.02778 6.52324 23.4562
2.0732 6.69474 22.9499
1.99265 7.6666 39.7894
2.39209 7.13863 28.2028
2.3414 6.95725 23.9682
1.57444 5.89373 34.7474
2.76963 12.3923 40.624
3.10732 8.51326 26.7151
1.94914 6.22959 33.2986
3.11712 8.10339 25.0421
2.1734 6.76895 35.0815
3.05508 5.20955 19.8422
1.67353 8.14251 34.9754
2.7188 7.74599 30.0296
2.505 6.14148 26.7005
2.01167 7.53939 29.7003
2.11277 8.71603 29.92
2.9144 6.8267 30.4022
2.62021 7.27006 22.191
2.3532 5.55026 31.0457
2.67646 6.64764 36.3655
2.81268 6.8516 23.4078
1.73965 5.91073 24.9532
2.30446 8.76791 24.1829
2.07779 5.63651 30.3851
2.43706 8.55571 30.3023
2.50402 7.93006 32.9159
2.04177 7.34833 28.5913
2.34538 8.07783 25.6987
2.34462 8.09042 35.5814
2.92565 0 0