# pn-170911/RbIIA-30-KOKB-1280-1959.psd
# Power spectrum* (dif=0,1,2) (really just |FT|^2)
# NOTE: only the first half! (symmetric)
# weeks: 1280-1959
# 3 clock-days, 0 excluded
# PSD: 1441
5606.37 0.082719 0.022494
158496 1.85249 0.0170304
926104 18.8362 0.0173345
93286.6 3.81693 0.0153807
61945.6 4.77806 0.0178972
63007.5 6.89022 0.0240908
29582.8 4.7483 0.0147615
13087.9 1.39723 0.0148659
16047.7 5.19079 0.0169798
4010.5 0.659774 0.0193463
9969.38 4.27437 0.0222058
4434.67 1.83791 0.0216013
3322.39 1.50557 0.0190594
4643.1 2.48276 0.0277971
2656.79 2.46551 0.0233689
4143.68 3.45017 0.0318433
1532.75 3.04509 0.0274002
1610.46 2.67181 0.0207933
2714.45 1.65649 0.0156483
3165.95 3.52186 0.0317035
3215.74 6.40045 0.0362421
802.507 3.22517 0.0227887
2034.02 3.34041 0.00855892
1135.07 3.51655 0.0294387
2054.86 2.73494 0.0308129
1912.87 3.25709 0.0349782
319.868 1.23157 0.0303485
1581.53 3.39084 0.0318316
1735.32 3.47376 0.0378165
494.477 0.774562 0.0332183
1730.8 6.05552 0.0350043
416.603 2.17597 0.0123016
1877 7.5532 0.0450456
601.842 2.81821 0.0396231
200.176 1.33512 0.0343705
411.295 2.43027 0.0487875
572.822 4.03548 0.0215243
339.119 1.13993 0.0158711
415.682 2.21887 0.0491567
387.973 2.30039 0.00780831
228.645 2.78823 0.0243675
222.577 1.35279 0.032688
238.512 1.38227 0.0288958
443.107 3.13912 0.0827141
908.955 6.32361 0.0789054
94.4996 0.969977 0.0294342
390.899 2.20428 0.0265604
216.398 0.575468 0.0163752
477.837 3.51102 0.0887461
50.9877 1.58774 0.0385436
340.548 5.16998 0.128618
102.597 2.27971 0.0301929
324.491 1.76627 0.0513707
281.472 2.52474 0.0498781
432.435 3.53607 0.0353957
108.617 1.5348 0.0261667
559.218 4.5899 0.120291
293.441 4.28782 0.124467
636.534 8.61262 0.122575
52.7014 0.456388 0.0181603
213.299 1.46951 0.0302638
364.918 4.01333 0.0779413
176.966 2.27559 0.0413415
130.261 1.98923 0.0126093
233.902 2.26711 0.0753985
198.359 3.30477 0.108191
304.479 3.24441 0.082959
274.233 3.90459 0.0902864
135.216 2.40114 0.0941228
150.713 1.25693 0.0162462
311.433 4.97786 0.106556
248.559 6.75354 0.124352
104.337 2.42413 0.0734682
270.972 6.77324 0.177334
141.269 3.82023 0.072323
169.474 4.06091 0.138187
126.028 4.61022 0.0956756
179.236 4.15679 0.0512276
41.5654 2.50799 0.0791184
229.803 5.71406 0.120468
194.651 3.76993 0.132527
164.715 2.37632 0.0803791
175.423 2.29429 0.0932172
83.8067 2.25903 0.0727346
57.0143 0.873018 0.02801
47.0504 2.21254 0.0457554
75.5911 3.55079 0.161383
82.65 2.65864 0.114329
37.4162 2.52837 0.0949179
81.9057 1.19927 0.0527114
52.878 0.739135 0.0221364
120.107 4.45721 0.250399
131.665 3.28284 0.0944227
79.2401 1.69251 0.0503047
153.586 4.71938 0.248508
146.766 7.50184 0.355986
97.0068 4.49074 0.140587
65.0534 2.16863 0.0593307
54.754 3.63509 0.20958
191.31 5.19177 0.248986
68.9367 3.2348 0.15862
60.825 2.85438 0.0976196
136.797 6.97733 0.376122
63.5155 1.13768 0.112976
23.8998 3.48173 0.165459
35.9403 2.44642 0.115019
97.695 2.39643 0.173394
72.5183 2.30412 0.135348
42.423 0.764589 0.097433
22.7381 1.02115 0.0505187
195.378 7.61796 0.507393
34.9917 1.37137 0.0922468
56.5864 2.4467 0.142782
48.3074 3.84401 0.23814
45.4164 2.47387 0.207577
41.8394 1.54961 0.166277
138.014 6.79579 0.530057
17.9438 1.01811 0.107534
41.4119 3.54112 0.37976
86.4692 4.31929 0.258111
52.4609 2.92677 0.225209
40.1298 1.94349 0.0618289
31.481 0.849284 0.103697
75.2249 3.83661 0.215848
66.6659 2.37838 0.235211
64.7093 2.61803 0.269294
16.1932 1.28906 0.0976079
28.1865 3.26594 0.208488
26.5605 1.41054 0.103836
26.2848 1.98978 0.246723
95.6858 4.13407 0.314177
40.6278 3.08765 0.242485
39.148 3.55491 0.356061
13.3962 1.23964 0.136432
83.2298 4.41666 0.452887
25.0613 1.12363 0.0821722
28.3142 1.9374 0.178549
48.6405 2.6875 0.265598
43.1933 4.4854 0.582387
24.5379 0.71911 0.127622
33.3619 1.10048 0.175171
90.0717 4.64184 0.403675
5.04911 1.94064 0.186096
28.1116 1.30706 0.160443
37.7862 1.53384 0.173899
12.7552 1.17742 0.107568
13.6705 3.06976 0.425411
59.7016 4.18144 0.515835
43.8361 1.82014 0.216862
33.8441 2.5796 0.303184
14.2884 0.666106 0.0291537
74.0762 4.48853 0.46006
48.0888 2.29934 0.291896
38.1858 2.90991 0.458664
18.6188 2.54932 0.239419
20.4644 1.67395 0.298474
56.1158 5.45276 0.423172
41.1838 3.53353 0.365583
16.0033 2.32425 0.273072
20.0246 1.95115 0.284221
27.3387 1.81546 0.327228
37.4406 2.95691 0.27082
11.9345 2.75903 0.425339
30.9326 2.29216 0.192311
61.1653 4.17724 0.576566
15.4025 2.19134 0.206527
55.9763 4.71205 0.705965
42.2747 4.70407 0.585692
12.6388 2.21599 0.365945
21.4559 2.7124 0.488943
19.5503 1.88538 0.314729
8.37491 0.415178 0.0883807
19.3589 0.725469 0.0849338
9.773 0.981228 0.222081
45.4793 4.22903 0.660847
17.0902 1.13977 0.254767
23.6648 3.31238 0.429389
9.41836 1.6516 0.183647
22.3109 5.68624 0.890987
63.597 5.52516 0.681567
10.2044 0.242692 0.0806883
58.1752 8.29628 1.23575
17.0356 1.98057 0.255813
16.8677 1.0676 0.129724
23.3867 2.42695 0.463593
3.24999 1.94435 0.477274
49.2966 5.50529 1.0276
46.5005 5.14906 0.771893
13.1553 0.669672 0.0563766
76.9494 8.10795 1.3944
39.9629 5.73854 1.08488
26.9319 3.23045 0.532667
28.4623 4.27067 0.637057
2.20529 1.62389 0.284157
18.3219 1.35353 0.220902
28.1742 3.8577 0.467437
8.29031 1.22542 0.23014
26.0116 3.16359 0.456994
26.0828 4.62117 0.896373
1.73438 1.2795 0.209158
19.7785 3.90859 0.626435
12.862 1.38349 0.272108
19.7938 6.62271 1.54071
57.4206 7.225 1.04454
12.7571 2.06542 0.456839
25.5307 4.0064 0.925454
12.3767 1.10642 0.0864348
11.5569 2.26964 0.344152
39.0296 5.46545 1.24694
7.54959 2.5178 0.596908
31.8427 3.22464 0.583381
7.21218 3.42883 0.79988
40.0362 5.20242 0.794789
9.11168 2.51987 0.516927
24.5187 3.18962 0.624832
57.7405 7.55698 1.33994
28.3014 3.78264 0.875631
39.7339 5.83061 1.55251
20.1554 4.15224 0.692102
1.80045 1.44472 0.28478
8.403 0.809605 0.206565
19.5801 3.01623 0.701018
24.105 4.18519 0.908951
11.1264 2.27386 0.702948
6.58771 2.73494 0.636387
21.2586 4.00826 0.794368
10.8112 1.55751 0.379886
38.0283 6.12412 1.56257
19.9175 5.18249 1.42692
26.7931 3.6999 0.809684
5.29897 1.21949 0.447751
14.0093 3.22424 0.708543
6.27451 2.78598 0.750271
8.92064 2.32239 0.908949
26.5219 3.42167 0.664271
7.63445 1.17641 0.293239
5.72571 1.23628 0.388218
12.6677 1.66405 0.487689
10.8703 2.09245 0.509252
11.9242 1.74806 0.561319
15.058 3.60471 1.35691
13.9616 1.8729 0.347216
9.69478 2.5979 0.607437
7.73015 2.64034 0.773367
5.70392 1.09153 0.224923
14.0283 5.9643 1.52458
5.85857 1.02149 0.370598
15.26 1.7963 0.452358
7.19475 1.48738 0.498238
12.48 4.3236 1.19454
22.5881 5.46357 1.64039
25.314 4.77777 1.41009
6.74189 2.56541 0.817725
4.85462 1.04046 0.404197
14.1414 4.06175 1.48725
19.4321 3.02352 0.888314
16.7821 2.39465 0.790004
6.46556 2.64201 0.684966
18.2851 3.80564 1.0806
2.47049 1.03166 0.447089
13.4028 2.15695 0.651669
2.90117 0.872679 0.300213
24.6966 5.18643 1.3666
12.9681 2.80208 0.997458
6.85141 2.06561 0.977822
3.22803 0.717253 0.122806
3.89564 2.70908 1.07578
14.3283 2.88374 1.02228
5.32446 0.609209 0.416005
9.86308 1.1388 0.437204
18.0201 4.67516 1.89748
16.4086 3.86597 0.978164
34.5722 9.38401 2.8269
15.863 4.5675 1.90985
1.79875 1.05934 0.622308
12.7338 1.8212 0.415822
12.976 2.11722 0.492495
9.45669 2.25868 0.692937
3.10722 0.884328 0.387157
8.41459 3.34524 1.28634
14.115 5.30284 2.11541
17.2578 3.01646 1.00937
20.3873 5.96641 2.42731
17.8909 4.93407 1.38624
15.5621 3.85503 1.69468
27.0133 6.09216 2.13085
4.26644 0.234609 0.268306
21.8214 6.10531 2.04236
12.8241 5.86023 2.13726
16.9328 5.53601 1.9001
4.79352 0.991867 0.629395
18.5972 3.56876 1.33773
6.28601 1.31053 0.561613
15.6079 4.0134 1.94108
6.84408 2.48933 0.673228
3.9195 1.33533 0.622994
5.7531 1.33871 0.830761
15.2115 2.90894 1.38036
6.22935 1.92505 0.615305
6.40705 4.18885 1.94131
15.5704 2.53383 0.875058
16.3055 4.54247 2.36861
2.93604 1.12376 0.184844
9.1419 4.22039 1.73746
5.33318 2.16351 1.1959
10.1844 2.77677 1.01765
10.0436 3.22927 1.19333
6.89131 3.06268 1.65693
14.7836 2.59125 0.949723
6.03769 2.15887 0.697558
7.00671 1.42491 0.589118
8.23892 3.44296 1.59339
4.58488 1.6138 0.70807
5.15239 2.32244 1.41172
14.3325 4.79782 1.999
2.98711 0.95962 0.552843
6.06713 2.30328 1.40617
7.90053 1.81305 1.16418
8.20719 4.09481 2.49623
7.34862 4.14042 1.35196
9.13884 4.72473 2.15369
8.18454 1.90359 0.722215
0.896857 0.592734 0.596259
22.0249 11.3691 4.52427
9.56572 4.08034 1.89679
7.5079 3.47442 1.66838
4.39211 5.23745 2.88288
2.24036 1.7531 1.23453
16.9408 4.54373 2.46261
10.5721 4.94508 1.80784
11.5813 3.70025 1.6185
4.62575 1.89404 1.38898
7.45838 2.31811 0.75618
8.0601 4.01396 1.92272
7.97785 5.85208 2.5609
1.60953 2.02264 1.38535
4.73288 1.65497 0.879971
11.4591 2.9589 0.989119
2.85344 1.75697 1.0402
2.68079 0.73042 0.317646
1.44409 2.067 1.63286
20.5697 4.7816 2.08345
10.3938 4.07754 1.88301
10.8016 4.22712 2.55498
5.09787 1.02545 0.578826
17.3576 7.11452 3.45637
7.82304 2.38954 1.07897
0.939397 1.34474 1.01343
4.48922 2.28189 1.11709
7.35049 1.73023 1.03089
21.6409 11.2889 5.57292
4.46572 1.73514 1.01071
8.32909 2.27681 0.882195
3.07459 1.92037 1.00229
1.13025 0.409464 0.264681
3.92201 1.76506 1.47904
14.303 5.64805 2.30364
10.3642 4.10423 2.55472
2.33143 3.47451 2.35754
7.70679 2.27543 1.01801
1.60468 2.10342 1.13207
2.74953 3.49051 3.13739
14.1233 3.92696 1.83051
8.32106 1.75489 0.583248
13.4032 5.53522 3.21613
7.0441 1.50503 0.675935
8.57534 3.98907 2.52203
7.19302 6.54052 4.7505
9.71186 4.09929 2.56846
12.0604 5.36957 3.22632
14.768 5.06478 2.48492
17.7179 7.50941 4.03289
12.659 9.84239 6.37074
5.632 2.09592 1.96214
3.74982 0.644107 0.669147
4.46328 1.76769 0.900981
3.44264 1.7414 0.958877
2.68717 1.70407 1.61959
5.94448 4.51074 2.84234
4.76867 4.37488 2.47462
5.94288 2.10787 1.1582
1.9158 2.55174 2.64447
6.62888 1.82726 0.536257
1.64094 2.3292 1.86937
2.90637 1.25392 1.53784
12.9004 3.82054 1.7135
5.54601 3.34576 2.266
6.57841 4.69025 2.82621
8.59104 5.70639 3.86366
15.5529 6.09486 3.68955
0.564531 0.835446 1.20084
14.7254 6.31567 4.19655
5.62378 4.13361 3.19699
7.34464 5.07225 3.03715
4.42731 2.6731 2.40342
9.10125 2.11579 1.2949
12.6469 5.81704 3.36981
4.68568 1.89443 0.978218
1.9687 3.17941 3.3559
15.175 6.17822 3.43012
2.55518 0.77242 0.443969
9.44327 5.06661 3.12506
7.63638 3.3611 2.36612
1.23758 0.749429 0.42435
8.17407 4.50652 3.08542
4.80753 3.55739 3.38689
12.13 5.98154 4.193
10.2553 4.19486 3.21645
1.64859 1.03861 0.886568
8.37353 7.3911 5.26482
3.3603 3.20613 2.66723
4.11667 2.71312 2.04832
8.86476 6.13818 4.8611
4.94486 2.93792 3.74816
3.87699 1.46549 0.908216
9.36728 5.65245 3.92543
6.42137 5.08526 5.00042
5.20127 1.78581 0.727514
1.81347 2.72193 2.82642
4.91271 3.48069 3.09432
7.08406 2.22037 0.956929
5.7335 2.37817 1.66265
9.60484 4.98399 3.58644
7.05378 2.05508 1.27789
10.6076 8.10313 6.23157
4.09514 1.25154 0.949537
11.0803 4.43919 2.95088
8.00137 6.21192 5.24259
4.60202 4.0825 4.58348
6.39357 4.16892 3.37561
5.62811 2.84226 2.47972
2.65192 3.15677 2.40538
4.7431 1.3679 0.708341
2.59888 1.96642 1.81419
4.99744 2.44446 2.35185
4.24718 2.84103 2.9659
4.48614 2.94746 3.06965
6.8029 5.34793 3.57767
1.24229 1.04761 1.07803
3.02324 2.80479 3.13725
5.32243 2.84353 2.75211
16.5083 11.1152 9.50062
11.4271 6.4385 6.02224
5.87794 5.01904 5.88266
3.67473 1.71779 1.35719
3.53927 2.29836 2.59574
2.04553 2.74737 2.10021
7.06729 5.32676 4.13531
0.901671 1.2896 2.04134
3.31661 3.13987 3.47701
7.58669 2.95547 1.29251
12.2508 10.5459 7.1819
0.794149 2.12399 2.10339
3.70549 4.39489 3.71676
7.16497 8.08303 8.41255
6.16024 2.9785 3.61076
9.41279 4.18216 2.60155
3.10968 2.9057 3.0105
3.08552 2.71947 3.37924
4.05535 1.16526 0.429396
3.90704 1.93446 0.833214
3.74782 2.68908 2.83189
3.18494 2.33273 1.92316
6.94276 5.81648 5.94934
0.865608 1.01519 1.20281
4.76512 2.99857 3.37993
7.35036 5.00458 4.00975
4.95254 1.93369 1.2103
7.6963 5.5621 6.29839
4.65589 6.26434 6.08846
8.46851 6.26178 6.5095
5.60727 2.9461 1.82951
2.05243 1.24522 0.895179
2.54727 0.699175 0.489539
3.28098 1.66756 1.55352
1.57024 0.81135 1.20631
4.29272 2.73117 3.5763
3.6983 2.91156 2.22063
2.35602 3.39796 4.59949
5.14528 3.4763 2.05858
1.59851 2.82981 3.90551
7.12318 3.16491 2.75844
9.02627 4.84968 3.79237
2.04237 2.28363 3.44171
4.21813 3.33081 2.58326
4.1104 3.05602 2.92505
5.32137 3.62608 3.56713
3.63775 3.1693 3.38384
8.82577 4.20287 3.07266
2.76127 1.19117 0.953454
8.23715 9.46591 9.3391
2.49546 1.87903 1.92639
2.2808 2.69197 3.66923
7.66099 5.79672 5.36165
4.82906 3.97169 5.29977
5.04504 2.98017 2.30224
1.92709 0.638697 0.467723
7.54002 6.48589 6.96147
2.76692 2.17919 3.63647
5.11784 3.73641 4.01417
8.13258 5.53845 5.46547
1.54616 2.12537 4.35815
2.59766 2.52479 3.55379
3.92155 2.01238 2.27238
2.64483 3.01709 2.65512
3.53108 6.34082 7.76418
6.18416 4.28541 4.71661
6.27826 4.17563 3.24303
6.12514 4.82938 4.48553
3.03088 3.60157 3.18808
6.18714 7.22226 8.2666
0.58217 1.56953 2.86935
5.32338 3.12697 3.54852
1.48334 1.55314 1.49926
2.40245 3.20318 5.09747
3.9444 3.18594 3.98826
4.08012 1.54604 1.59672
7.59004 8.38773 12.4893
10.5491 8.80385 7.67361
3.10966 4.32376 4.68785
2.82619 4.20291 4.70835
1.49264 2.43483 4.03136
9.78148 7.70259 8.43838
2.99455 2.82746 6.28252
5.57214 3.00799 1.97473
2.81066 2.64619 3.57446
3.85596 4.29562 2.78923
8.70772 11.8421 15.0318
4.71341 4.37054 3.88494
2.07862 0.943364 1.2407
2.75468 3.22725 2.76641
1.90131 2.92411 3.87242
2.62056 4.49606 6.94542
4.14907 3.38478 2.45456
1.957 1.68319 2.61838
1.38092 1.60909 1.43119
0.447823 1.68622 2.13276
5.87424 6.96895 6.29396
2.56565 2.2319 3.50374
1.56219 1.06376 2.44909
4.34157 3.51885 3.6421
1.80784 2.31586 3.0426
1.96068 1.57288 2.4861
1.26518 3.06555 2.78164
2.78328 2.72489 3.74169
0.86549 2.23578 2.3412
1.78609 3.84178 5.93134
3.27946 2.42292 1.90289
1.19093 0.840254 1.64701
6.0171 6.72638 7.67452
4.33962 4.94286 4.87444
1.62973 1.68292 2.76944
1.179 1.78002 1.95308
1.6734 1.2105 1.94627
1.39345 1.48748 1.05792
2.59561 2.34116 2.02216
3.06159 6.13488 9.12413
3.17909 5.73222 9.22243
4.00703 4.0621 4.3827
3.76159 1.81738 1.04905
3.15845 3.75656 4.81422
1.41913 0.831593 2.60554
5.1705 4.42454 3.51631
2.00188 0.964372 1.3442
2.02528 2.49629 3.81706
1.36542 1.84017 2.00896
3.21378 5.89756 7.99382
5.47137 7.09912 12.0799
4.30118 4.97646 6.11663
2.96217 4.17415 4.94415
2.26307 1.46836 3.38092
2.12679 1.64781 2.2438
4.56615 7.1344 7.48958
3.12825 5.342 9.16056
1.84079 1.24588 1.80256
0.559313 0.676893 2.05397
2.26626 2.59639 3.99171
3.24251 2.76223 2.26425
0.656205 1.81961 2.59806
1.46134 0.252764 1.5161
3.51357 1.70908 1.20597
3.76486 4.27478 5.40683
4.64563 5.29778 7.72556
1.12639 1.46258 3.39527
1.60163 2.12037 1.44644
3.57049 7.37136 10.4387
1.93154 1.66001 3.02489
3.36995 5.45582 7.39653
4.60742 3.1079 4.79298
0.956096 1.60391 1.43706
2.92764 3.82791 4.49745
1.96369 2.21739 2.28333
1.00192 1.63699 3.14782
5.53204 6.3482 11.4271
8.61852 8.55444 8.63759
6.12668 7.6051 11.6348
3.03162 2.73708 3.91396
1.61834 0.815388 1.4498
1.6129 3.03975 5.28365
1.26622 0.744797 1.88317
1.33452 2.34181 5.98944
6.72133 9.47202 14.371
5.83436 8.46092 7.76343
2.67504 5.84422 9.80862
3.03941 2.612 4.0418
2.28617 2.07722 5.67968
2.18998 5.18737 6.99156
2.30804 1.65676 2.77604
1.90068 4.15151 4.42246
2.89421 4.17683 6.34841
0.41981 3.52283 9.28393
5.5953 5.0871 6.37473
3.6642 4.50376 8.27477
4.6295 6.6973 9.13025
2.14311 3.13983 8.11636
9.856 10.2797 7.82523
1.42256 4.444 8.9447
4.54875 4.1986 4.48766
3.50223 4.17562 6.02122
2.17343 1.47888 2.38264
2.58598 2.27498 2.79592
2.56409 1.54218 1.75257
4.5683 4.79265 7.12301
1.15615 1.363 4.23128
4.21607 5.59121 8.39704
3.55181 3.35433 7.00372
2.8975 4.20922 3.47696
1.36071 2.03 4.2876
6.03219 7.18656 8.18174
4.06722 3.41644 3.87681
3.1945 4.0016 7.40128
1.9899 4.35783 5.31079
2.37534 3.49378 4.08745
3.45294 5.94867 11.9148
2.57429 5.01527 14.4177
5.88237 6.30452 5.7785
2.57432 4.98651 9.09616
2.16761 4.03156 9.59558
1.71355 3.23794 7.78377
5.30909 7.96627 11.8476
4.60268 5.37165 6.39935
1.32011 3.13025 3.48577
2.53733 2.80262 3.61913
3.5468 5.68907 9.07164
0.937098 1.79858 6.09933
3.83999 4.9397 7.82909
3.69165 6.66659 7.94335
1.67066 3.59373 8.42581
2.78004 0.921492 1.29943
3.48407 5.10537 6.19154
2.8396 4.71086 10.0389
3.0669 3.66138 5.77726
2.36771 2.61261 3.67149
4.21625 6.18605 10.0952
1.21985 2.78838 5.94754
1.97386 5.29994 10.0704
4.55189 5.89696 13.9585
3.88408 5.57598 5.79199
4.72969 6.8874 5.88379
0.880706 5.9324 13.3701
2.8591 3.04144 7.79629
7.17235 7.09031 9.62988
1.87722 1.82791 2.99366
5.0602 5.56615 6.67584
1.10962 1.27663 2.52951
0.762498 0.764518 1.84289
6.22769 16.4565 26.2412
1.63054 2.60538 5.86714
2.52957 1.07481 0.767084
1.5016 2.88651 5.4992
4.73537 5.7439 9.14653
1.03636 2.17293 4.87636
2.88515 4.75053 9.53655
1.67524 3.71691 6.63013
1.87629 2.93969 5.87503
3.08931 3.25645 8.05459
2.66393 7.12263 14.3922
5.04518 6.92803 10.52
1.17572 1.23706 0.702181
2.29807 4.4201 6.47381
0.8197 3.96198 7.07071
2.88796 5.5247 10.4147
1.82113 4.43651 14.7267
5.04717 8.14772 8.00977
0.825383 1.87352 3.73988
1.01089 2.36453 7.8295
1.18492 2.82822 5.52947
0.753529 2.85844 6.93075
3.09092 3.14832 5.13248
2.54775 5.14785 9.45411
1.77922 5.73643 15.9221
3.87501 2.65148 2.94223
2.14829 1.21755 0.704944
2.49408 4.4556 9.39525
4.04397 5.454 7.13138
0.500987 2.34783 5.51475
1.38327 1.80158 5.23658
3.94343 6.83325 12.5171
2.87223 1.85905 4.25685
1.75988 1.47835 2.26826
2.9175 4.26272 7.30343
0.753221 0.409376 3.41678
3.73058 8.79309 11.5431
1.80255 6.41424 12.7833
2.81559 3.54076 6.47446
2.01678 2.14167 3.99103
3.4434 6.04589 8.65974
0.401054 2.92276 7.19053
1.11696 2.08022 7.65815
4.41924 7.31697 16.3224
4.39705 3.90186 4.06149
0.838687 2.31495 4.99869
3.58082 5.24642 10.1748
2.1058 4.76283 7.84292
0.964057 1.26562 3.79392
1.11296 2.44272 8.18143
5.6392 10.2467 22.5261
6.21877 7.91113 15.1342
6.01956 8.55143 13.207
3.83316 5.45322 11.8577
1.3775 3.54059 6.96278
1.91205 1.38137 2.09637
0.783556 1.73737 4.86002
1.90058 2.71213 3.98914
2.58304 3.82659 7.50224
1.43019 2.37759 10.8465
5.30629 8.76252 14.8469
3.19258 6.26397 9.92144
2.15896 3.54145 11.4422
2.10153 2.06138 1.93292
0.945985 1.05748 2.3294
0.933789 0.674301 3.93927
1.33265 3.63845 7.53622
4.31399 5.49814 10.0539
0.641169 2.13268 2.15191
0.780437 3.36651 8.65125
4.96387 9.38349 15.8271
2.49665 4.68738 13.4688
2.76755 3.64263 8.9926
7.13822 11.9263 22.2118
2.01851 2.44854 10.8452
5.44356 4.62222 3.14968
1.8226 3.74951 7.93573
2.71379 4.6673 9.16271
3.08007 4.18638 6.15921
3.6015 11.2816 25.4249
2.55382 3.75361 5.21166
1.35005 3.05158 9.90769
2.00171 3.09417 9.40852
2.06452 5.11575 15.1577
1.90948 4.67377 11.5342
3.22389 6.25932 11.193
1.95568 3.62361 6.81157
1.80108 1.90489 6.04138
4.86724 7.43136 11.5257
2.65629 7.01538 14.2913
1.88733 2.17262 7.37127
2.91778 3.04545 4.6931
2.82182 6.18956 13.6615
1.17763 2.58587 3.58974
0.826742 3.45094 9.37144
4.74678 10.1396 19.3149
2.30114 1.14336 3.11125
1.5895 3.18083 10.3653
3.60251 5.68863 13.5018
2.03268 2.92849 3.71937
0.993118 1.99948 6.00434
1.65756 2.78824 6.16536
1.15678 1.73882 3.74519
1.20946 1.79287 7.08346
1.92103 4.39812 8.04394
1.42578 4.1662 9.45864
3.24961 4.48621 11.4182
2.74845 3.39078 3.31705
1.10153 2.31421 4.99794
2.44143 5.92971 14.4589
1.59259 4.45315 4.88835
2.31192 6.87312 18.0038
2.83054 6.1351 17.1157
1.62467 2.18152 9.4445
2.61501 4.15834 1.56569
0.770805 4.3425 9.79547
2.14416 7.12647 16.1017
3.52194 4.59012 10.9863
3.00037 5.70632 11.7097
3.89002 5.2631 11.4453
1.63577 3.80553 11.3236
2.14802 4.94002 15.406
2.97185 7.0746 13.5198
1.74039 2.40667 2.02592
0.932098 4.32974 8.74926
1.61581 3.41285 9.40265
2.03918 3.76278 10.1272
4.37976 5.99095 13.9473
1.86659 2.54121 4.11728
1.16409 5.67624 14.1542
3.35246 3.19541 4.4808
0.807736 0.986699 3.63908
2.30628 4.02543 9.80347
2.20904 7.11019 20.9973
4.06089 5.42945 10.2874
2.363 5.18147 14.3517
1.56302 3.96795 7.0568
1.7212 7.3484 16.4429
2.09194 1.6435 3.32242
2.45274 3.64547 9.53842
1.2561 3.23308 8.78847
1.34209 1.62944 3.47885
1.35883 2.07021 3.51791
0.594147 2.64575 7.39902
1.57913 3.25997 9.01015
2.13268 2.49475 4.11601
2.92005 5.01645 8.2538
2.15028 5.20223 13.9299
0.95608 2.39278 11.0479
4.14174 7.58614 12.9314
0.750873 2.54281 9.65135
1.42131 2.47621 5.5571
1.32586 3.36083 2.18808
0.655572 6.32036 18.7484
2.38238 5.80176 10.2206
1.0476 4.84657 23.7213
4.70176 3.8456 2.98705
2.38782 4.39314 13.9389
3.30193 7.38573 15.2054
1.00377 3.68399 10.0711
1.3927 1.99396 3.57164
0.754326 1.74166 2.19917
0.551948 4.2413 15.8953
1.84064 3.19357 9.18624
2.10699 3.75506 9.98991
1.48318 2.24383 5.29589
1.57885 1.52749 6.63464
3.16411 9.68595 25.0193
3.29342 4.2524 6.05886
2.39615 2.86224 4.76877
1.00138 3.73326 13.0941
3.29938 6.13749 12.1742
1.51792 2.73173 9.56076
4.44042 9.97186 16.5515
0.614093 1.90126 3.65216
0.896351 4.26247 12.3164
1.61939 2.85106 10.6231
1.0927 2.45136 4.71069
0.581653 3.00976 18.1094
4.20356 6.89161 13.715
4.46834 5.80659 9.65071
0.808895 2.26426 5.30383
1.2246 2.8912 13.0169
1.51393 4.30109 9.94482
3.15906 9.28651 27.8055
3.5026 4.39428 6.50022
1.39153 3.69418 7.74196
1.20632 2.36681 8.32644
1.2659 1.33064 3.43682
0.572885 1.21664 5.54347
2.29066 2.70791 8.99773
0.932553 0.766705 5.30933
1.25462 5.29714 13.9476
2.68907 2.63605 7.25069
4.64845 11.0516 22.9758
1.38468 1.33495 4.90477
1.90078 1.74786 5.41154
2.08514 4.72884 10.2255
0.975294 1.52147 3.95843
0.996159 1.21242 5.59726
1.9836 5.1332 9.77669
1.97845 4.52039 15.4208
3.34331 4.94997 16.8913
3.2323 7.4873 7.65242
0.242756 2.07396 6.62629
1.32492 2.02578 9.19022
2.9735 7.03415 14.9395
2.07772 2.9051 8.52747
1.73652 4.49434 22.9872
4.55376 9.1556 12.3399
1.28725 4.03737 11.3504
0.52873 1.38245 13.4264
2.96554 6.40137 10.1393
0.837934 1.63979 2.96126
1.68675 4.51266 7.67337
0.76141 4.78115 20.0896
1.50757 1.60471 3.25929
0.537431 2.67574 9.07123
0.894068 1.83028 7.92106
1.39576 2.17402 4.15138
1.15909 4.26723 10.0128
1.42197 3.27035 6.84128
1.76948 4.05101 14.0581
1.38121 6.12058 16.3722
2.77417 5.62158 24.5022
2.28447 4.95259 6.64089
1.38121 2.514 3.11163
0.369775 1.82233 10.2128
3.21296 6.25655 11.264
0.752866 1.81488 16.2021
4.19498 15.5416 42.9044
3.36948 8.37264 12.3772
1.77424 5.32334 10.6624
0.933456 0.826936 3.39492
1.12375 1.89246 10.3244
2.96041 5.31409 7.30353
0.489251 4.1211 16.7286
2.44659 5.24741 18.3263
3.73489 17.3329 52.056
6.12309 7.45183 9.47949
1.64503 3.79187 14.3759
2.08086 4.94458 11.5866
2.3119 5.73102 12.2009
0.893981 0.736551 1.27112
0.986016 3.00241 14.6978
2.35731 10.8261 24.4374
3.11604 3.43215 7.93267
0.620446 2.95074 15.5194
2.50119 3.16537 8.93314
1.50101 1.33486 6.88566
4.67437 13.222 26.3593
1.16804 3.72858 19.3796
1.85417 5.34391 16.0709
1.48075 3.68434 8.15963
1.16275 1.24682 4.34334
1.45633 5.69288 18.4821
1.70339 3.66303 8.15076
2.09883 2.97789 10.5502
1.82788 4.91894 17.3363
1.7941 4.29863 11.9669
0.734997 2.80979 19.3394
2.52425 2.62186 5.68617
1.82547 2.09883 3.77779
2.26549 5.47538 15.7511
5.53356 12.3217 19.6285
1.15379 7.35118 21.1125
1.19605 5.95226 18.6792
1.89733 2.9525 6.21969
0.591882 2.40629 14.9792
1.70429 5.83048 15.0665
1.96453 6.06105 16.7555
2.87396 4.88643 12.8992
1.26666 7.01579 22.3256
3.5256 5.9118 22.7982
3.22801 4.85146 10.5417
2.40201 10.1927 21.7573
1.90682 5.91707 15.455
2.3864 5.79504 18.4918
0.832684 2.48381 4.09917
0.867006 3.60991 20.2943
2.02998 3.50682 4.80249
1.16775 2.80458 7.85869
0.951347 6.60471 17.1707
1.36659 1.23498 6.45442
1.98087 5.61386 19.2684
2.88849 7.9039 18.2209
1.49188 5.07932 20.7673
2.16888 6.52199 21.7709
3.34377 4.40967 5.57169
0.307148 4.73711 33.2951
5.439 7.96107 15.2255
2.16616 3.59221 11.885
1.81438 1.82557 1.2682
0.38468 1.22808 2.68492
1.58452 7.1404 20.0235
1.94995 5.59879 18.5823
2.83808 5.97439 17.774
1.43968 2.14049 13.5291
2.25329 3.69613 13.0779
2.12421 1.0873 1.2509
1.08978 1.34368 10.5024
3.51118 10.0879 17.9569
0.447477 5.96938 27.0027
3.29241 2.77606 5.17206
1.69866 3.08364 7.78196
1.21124 3.40453 12.4126
3.16606 8.59713 28.3557
2.24744 1.81986 8.24854
3.77972 16.2862 39.837
3.74108 9.2998 25.9262
0.981561 1.50461 20.0331
3.28421 5.46796 5.70014
0.376347 1.09721 0.672453
0.477185 6.38027 31.3242
3.68888 4.44414 9.30081
1.7403 2.20636 4.35673
1.52304 6.73319 14.8578
1.09892 6.02466 24.8279
3.5188 9.31666 16.8983
1.33765 2.94888 15.8777
1.55784 2.67763 4.74045
0.918174 4.03197 19.3745
1.93766 8.20122 21.0551
1.74525 3.38413 19.1723
2.1692 3.55953 3.11125
0.493826 2.22643 8.65379
1.09699 2.52853 6.97329
2.33584 11.2261 46.1382
5.12055 5.68821 5.92604
1.27725 5.0988 11.4802
1.8727 5.98965 30.6835
3.494 11.5647 32.5385
2.01849 1.55886 9.94779
1.55794 6.30495 24.4908
2.96076 3.53158 6.54262
0.961302 5.43363 22.7453
2.3513 3.50742 9.48573
1.6643 4.07614 9.9732
1.40878 5.9064 16.2024
0.879286 4.61286 20.386
2.70549 2.56231 4.78458
0.847147 2.68399 1.70805
0.254093 2.38961 8.86435
1.37678 3.85711 14.9931
1.15843 3.43652 13.1072
2.02833 3.63818 8.8548
0.771102 4.30369 21.6881
1.87134 9.23792 30.2269
3.14772 8.37798 13.1566
0.990207 2.26924 12.9132
2.02673 4.15705 9.25304
0.723822 6.37325 21.4765
1.56084 4.34128 19.5536
2.80204 2.01857 7.00905
1.09721 3.95693 12.286
1.73343 2.73858 8.05298
1.40602 3.14993 15.0986
2.69098 6.32353 6.02494
0.853771 5.35301 18.7934
1.93573 4.71804 44.848
5.68325 10.3093 6.40858
1.00504 4.62431 13.8358
0.784995 2.93565 13.8493
1.57312 6.43176 20.3175
2.24735 2.14768 10.1891
1.49225 2.72821 2.36123
1.36868 6.20984 16.4076
0.931372 1.7063 13.262
1.48716 2.16041 14.2609
2.06701 4.25533 13.8412
2.09299 6.87446 18.6468
1.91152 5.42845 12.9956
1.08494 4.91746 22.2944
1.72417 3.65544 13.565
1.40629 8.73728 22.024
1.7295 2.4793 8.3308
0.702574 0.909785 3.65727
1.23451 4.80512 33.3791
2.81149 6.61509 11.4903
1.11863 7.00249 18.8073
1.78441 3.61874 10.4155
1.4166 3.49134 10.6923
1.53987 4.00369 11.4499
0.448933 0.806908 5.1136
1.49681 7.98665 22.8117
0.869911 4.18311 15.4179
0.946096 1.09186 7.91514
1.26692 2.12886 12.9809
1.60238 3.76036 14.0216
1.29303 4.11309 11.7588
0.887438 2.54831 7.11745
1.20216 2.82818 14.6009
2.67415 9.12074 18.8582
0.862644 3.12299 24.3349
3.26581 5.38678 4.48523
0.641222 3.68809 11.4105
1.41431 6.78525 12.7718
1.33695 2.34243 8.38329
2.10115 7.62515 26.8386
2.02489 1.73421 5.02316
1.89031 8.27009 32.6941
1.39492 2.56183 14.7647
1.56923 4.7062 9.10245
1.16145 5.43099 20.011
2.6558 7.01492 14.0083
1.32536 4.09358 7.93669
1.06435 6.27942 20.0461
1.10228 5.30732 11.7521
0.768971 3.48503 20.7546
2.85836 4.65974 3.58528
1.08964 7.19543 26.2619
2.03828 3.53118 22.2241
2.23791 3.95795 15.0148
1.16348 2.52729 9.48196
0.763983 2.7777 6.20005
0.277955 5.89852 25.0056
2.34895 2.07118 8.38847
1.37488 3.9936 27.3594
2.27472 3.60215 6.97319
1.09117 5.54872 17.3916
1.7273 8.5218 27.7324
3.17229 8.1102 40.4009
4.71461 11.7521 45.2474
3.63537 5.51731 12.5895
1.90463 6.53563 12.5308
0.699104 2.52342 14.2645
2.04129 2.5615 9.19888
1.39201 4.19748 9.45176
1.66682 6.61132 14.4124
0.81734 1.52274 5.85471
0.282131 1.40706 6.7346
1.33395 11.3879 32.649
2.07593 2.85268 16.1091
1.5702 3.34564 21.4514
3.37769 3.18051 1.35436
1.33195 6.11063 26.8443
2.36774 6.59623 20.7574
1.3447 4.90116 11.1194
1.22586 1.37285 4.5559
0.854879 1.91139 3.28972
1.08839 4.93828 20.3788
1.10672 5.06341 32.1889
2.31041 6.59017 11.4956
0.85147 0.642313 8.7126
1.69021 8.49027 23.8606
2.10319 4.74542 23.9224
3.01932 10.8956 12.7434
0.681765 6.35728 31.3483
1.0835 3.84284 20.1143
1.84317 2.71667 8.13202
0.222117 1.56059 6.80833
0.786601 4.46222 11.2581
0.837304 0.502847 3.97609
0.372341 3.15812 8.15301
0.892276 0.914494 3.40268
0.400279 2.53899 10.8658
1.28499 7.10321 28.5654
3.14311 5.23498 8.92159
0.354308 3.83199 10.5219
0.260641 0.915371 14.6443
1.00051 2.63937 19.3777
2.20383 9.62652 20.2352
0.841933 2.29065 5.99412
0.703242 4.55352 22.7247
2.24528 4.14636 13.9569
1.15596 4.62818 24.046
3.09589 10.0299 34.2051
2.76926 7.32749 17.5397
1.17438 2.97624 9.61508
1.04807 3.73065 14.0071
1.32001 3.72772 16.5143
2.49687 7.995 28.265
2.15142 4.4584 21.0934
2.44225 5.99221 7.49519
0.995936 3.83543 5.23869
0.625911 5.46703 22.1421
1.3831 2.63321 25.9557
2.51855 10.1295 42.1372
4.41989 3.64052 5.57329
1.13731 3.25122 15.3928
2.2357 3.90365 10.6488
1.45966 7.76862 13.2502
0.922097 2.4406 11.4518
0.674755 3.84176 29.7087
2.38402 4.48778 18.634
1.27783 3.23432 6.9248
0.561906 7.20913 43.1476
4.39374 11.1145 26.904
1.79291 2.73828 10.9434
1.5521 1.77501 31.0261
5.38749 13.5629 29.7167
1.67818 6.81574 20.5609
1.44855 4.28399 13.5846
0.880629 4.06251 8.2947
0.883397 2.92908 18.3998
2.38801 6.29059 24.159
2.14921 6.81986 10.4976
0.755776 3.22522 17.7892
1.60533 4.13765 29.2704
2.57302 6.61364 32.2551
3.27752 11.5324 28.2312
1.39241 8.18336 11.3078
0.832566 7.15009 38.9676
2.93814 5.24859 23.5174
2.28843 7.97169 21.4295
1.28363 5.18895 25.1186
2.91523 9.74606 23.8748
1.80274 2.99727 13.0996
1.88739 3.5365 15.111
1.91743 5.26061 28.6057
2.40287 4.42923 10.6647
2.56918 19.0637 58.5277
3.05729 5.82105 21.1059
1.74527 3.26263 22.932
1.34176 4.19567 18.5284
2.36972 5.09419 7.77071
0.759648 1.38359 13.9682
2.32883 8.09467 13.2562
0.638083 3.42241 20.8145
1.94735 7.03853 16.0599
0.71194 2.08745 14.1477
0.929425 3.22597 17.2302
1.12239 3.48008 7.43565
0.786462 6.8085 28.8783
1.19384 1.88379 6.98433
0.692891 3.83013 25.385
2.67647 9.57816 34.4194
2.33561 7.70064 20.5236
1.6769 3.1439 14.0364
1.15372 6.37289 22.6323
1.55476 3.27862 5.05804
0.759479 0.670057 4.52441
0.971442 9.71498 30.8898
1.76937 1.60347 7.23443
0.969947 1.12732 12.3284
2.3633 11.6894 48.3197
3.56466 5.04064 10.1867
0.897441 4.0243 29.4647
2.6078 4.13086 12.7969
1.24322 7.77439 18.6615
1.76929 5.39319 17.7328
1.28425 3.61857 20.5549
1.74165 4.52953 16.8659
1.05673 5.77095 16.4124
1.72849 2.12128 7.29033
0.890998 3.03592 6.42564
0.849168 7.89976 23.728
1.66097 4.91697 32.1867
2.87715 7.49696 13.8254
0.384458 2.07853 12.2757
0.917476 3.07712 10.5942
0.705464 3.93681 13.3646
0.823254 1.3526 9.42351
0.736058 3.12418 26.9647
2.91083 7.7254 12.1965
0.740575 7.5533 35.1742
1.50783 2.57791 23.6502
2.40836 9.58372 9.82861
0.382388 5.89871 34.6232
1.89984 1.332 11.4711
0.965456 7.01319 17.0065
1.05384 1.4489 12.8646
1.06024 7.32983 20.5529
1.66223 2.24559 11.7604
0.5945 7.39796 22.3342
0.8958 2.58693 43.3634
3.20833 5.21606 20.4013
2.58874 10.8792 20.9093
1.25848 3.03727 16.0954
2.29762 4.31487 6.9228
0.593926 3.72997 25.2718
1.75451 4.70814 31.49
3.60727 9.29613 23.6076
1.39767 2.26564 2.73962
1.0502 6.67561 31.9823
1.58922 2.62243 22.3152
2.17071 9.37561 22.411
1.77928 2.86515 13.3782
0.744116 5.24014 24.023
2.55322 6.5752 6.25421
0.521173 3.09707 17.7831
1.07133 6.88878 9.10463
1.09596 5.7828 26.8274
1.39988 3.08826 21.3214
1.58998 4.85092 8.61123
0.160354 3.60428 31.9627
1.58416 3.7257 7.20114
0.235941 2.83191 16.655
1.48292 6.61233 11.9942
0.715869 1.82536 15.3969
1.43488 3.85125 7.15777
0.396782 3.8239 17.1966
1.05368 0.363396 4.63852
0.231279 1.73747 10.4268
1.07973 4.4591 21.0213
1.1096 4.42884 16.9905
1.8943 7.22664 22.6667
1.72461 6.5811 22.869
2.59607 12.1472 36.7862
2.02678 2.09944 16.2145
1.86781 6.1864 15.5918
0.810149 3.74945 23.7296
1.73505 2.62756 24.472
1.84022 8.95704 16.5313
0.95818 5.03415 22.9714
1.04902 4.49418 21.7598
1.92256 8.35695 15.8977
0.892291 2.5308 17.1508
0.825605 5.23109 8.92354
0.698906 4.16372 29.824
2.43807 2.71183 28.5464
3.25929 8.84725 50.9858
3.97967 15.0027 15.8124
1.03472 5.93611 30.8377
2.57838 5.1244 23.0099
1.67577 0.813811 21.8958
2.12368 6.83638 10.1758
0.755059 3.518 6.37063
0.992869 4.41916 16.7306
1.21118 3.67092 7.18865
0.517125 0.811239 6.47222
1.22815 12.5405 56.4705
2.75446 3.88269 21.8484
1.70721 2.17836 8.88222
0.749426 6.12682 14.298
1.57982 1.99175 3.37331
0.598678 4.04888 31.3389
2.08784 6.21553 26.8376
1.58896 3.70478 2.49038
0.654394 2.26312 13.1673
0.770891 6.21608 11.8175
0.97382 5.47132 55.6945
3.72682 8.83409 13.2841
1.79357 7.67266 18.3067
0.599919 2.84706 20.7428
1.01217 2.27849 7.57917
0.75811 8.59146 27.9503
1.88493 7.38182 43.8597
2.44126 4.94359 5.74466
0.755531 3.86562 24.9279
2.07642 7.04899 19.4961
1.71222 6.84099 15.7498
0.78966 3.66054 21.1638
1.53064 6.17751 16.1451
0.993755 2.20561 26.4201
1.54351 6.14512 14.6539
1.16954 2.89848 26.1598
2.35271 5.65341 15.196
1.95387 4.22124 15.8777
1.49275 4.27801 14.6391
1.29581 5.95825 24.2406
1.17453 6.90829 33.5681
1.72338 3.32361 4.71757
0.364074 3.59031 38.3285
2.71463 13.2478 21.1218
1.34733 5.19957 38.5252
2.72019 9.37926 42.3513
2.77123 3.85405 11.0624
1.35741 2.31059 17.6633
1.11801 6.36189 29.2108
2.93862 6.28477 6.89105
0.649195 3.89744 11.7664
0.447581 0.776558 12.6969
1.1846 5.35138 15.4261
1.07787 7.09528 29.4557
2.16652 10.9076 40.0598
2.45515 2.12716 8.21727
0.801126 4.16266 18.3575
1.69343 3.96979 20.9257
2.01611 2.39804 14.1971
1.1158 6.45261 20.8564
1.25957 3.55968 12.4196
0.541551 2.39168 10.0035
1.00185 2.98323 22.3247
1.26882 5.67304 14.6725
1.51602 4.22632 32.9597
2.50031 4.56664 28.3583
2.2929 2.27864 13.5533
1.40733 3.99343 16.7592
1.74914 5.02658 8.51818
0.850534 4.3945 29.1765
2.00487 5.74419 16.1628
1.41716 14.0956 27.2576
1.4647 5.63727 10.9342
0.448606 2.96082 20.4232
1.81609 11.3888 28.1583
1.17101 1.02074 26.4123
1.78325 6.42918 32.1487
1.68812 5.89406 8.58187
0.680192 5.10315 25.3627
2.16997 6.15546 13.6658
1.04199 4.32502 28.0448
2.68353 7.00958 26.0012
1.73055 8.34115 25.3171
1.81453 8.98513 23.2944
1.14407 6.8078 13.4768
0.593307 3.76422 22.8416
1.70496 6.30694 18.97
2.21952 8.88652 40.4525
3.51762 10.7645 91.6024
5.80576 7.09886 10.8892
0.77346 4.2616 42.105
3.18681 10.7918 7.92944
0.270817 5.46183 33.0103
2.38007 2.67499 6.00407
0.704723 3.73361 17.7985
0.903222 7.29967 48.084
3.44211 12.4231 25.9598
2.48635 5.22676 21.5413
1.79015 12.8062 49.4034
3.17679 3.66785 3.76544
0.725811 3.51798 13.962
0.806763 2.42574 13.5813
0.71597 3.71568 10.7344
0.76664 4.00315 17.4126
0.748242 0.513191 9.08655
0.543779 8.84964 48.6031
3.38629 12.2165 45.0841
2.82829 6.44262 17.3968
0.941129 19.9283 83.1748
5.95835 8.35075 40.1848
2.97527 7.49418 15.1687
1.48897 3.11095 5.73795
0.185909 2.50296 20.9236
0.903842 3.79049 11.3776
0.631581 1.28632 3.73646
0.162039 5.76267 18.6567
2.20658 6.45225 29.7151
2.40469 7.74792 65.9759
4.68558 10.8909 15.2258
1.20077 2.93619 28.4656
2.58943 5.71558 13.7509
0.795015 2.36796 8.4603
0.749055 4.12146 20.3578
1.27352 2.80173 19.9808
1.51015 3.37584 10.1745
0.67858 12.931 61.7011
3.09603 6.60108 26.1352
2.02654 4.16889 10.284
0.630617 6.76827 19.4464
1.96329 1.58066 12.105
1.66362 2.3724 14.4445
1.54545 9.67346 20.6396
0.563109 5.34731 34.5734
1.65526 4.74309 7.81232
0.488522 4.60641 19.7817
1.34499 3.04183 12.8657
0.785408 3.7382 20.5186
0.82655 6.47855 21.9699
2.02711 2.52184 10.8975
0.96009 4.21305 25.6787
1.69735 9.83655 32.7957
1.94657 1.59222 5.61427
0.489131 4.44976 23.4555
2.19417 2.6541 87.02
6.65956 19.9914 19.9671
0.77888 7.72342 20.5862
1.09597 2.23399 12.8111
1.37025 6.21873 25.2302
2.27487 1.52262 17.1155
1.32643 3.76542 5.71209
0.90079 4.60347 38.8521
2.01113 6.08971 4.7515
0.444887 4.07216 19.1045
1.8613 6.09212 29.31
1.39195 6.7384 16.8248
0.535666 3.55861 14.3024
1.0449 4.75686 12.6178
1.36309 5.76519 11.4265
0.934906 6.18135 53.1147
4.435 12.9723 25.683
1.29807 9.83219 20.9438
1.55164 2.74499 23.301
2.07437 7.28165 15.3437
0.437713 0 0