# pn-170911/RbIIA-23-USN3-1280-1959.psd
# Power spectrum* (dif=0,1,2) (really just |FT|^2)
# NOTE: only the first half! (symmetric)
# weeks: 1280-1959
# 1902 clock-days, 661 excluded
# PSD: 1441
4140.05 0.330402 0.00327031
270938 1.64815 0.00202717
2.31505e+06 52.2931 0.00286762
70331.9 1.80005 0.00184212
96437.5 6.35692 0.00230632
23912.9 1.54411 0.00211199
18297.8 1.99485 0.0023515
11565.4 1.43581 0.00240175
10119.4 1.8955 0.00252182
7019.85 1.3981 0.00242806
5540.1 1.33418 0.00250006
4649.94 1.37893 0.00272285
3875.25 1.42916 0.00294741
3206.06 1.40493 0.00324722
2826.67 1.38477 0.0032088
2443.96 1.37217 0.00344657
2135.35 1.34632 0.00345231
1894.97 1.35286 0.00382234
1704.04 1.3466 0.00400311
1513.81 1.30874 0.00426612
1344.8 1.34568 0.00451358
1247.18 1.33577 0.00485854
1094.25 1.34457 0.00512773
1071.68 1.37147 0.0055397
924.028 1.28156 0.0055423
878.67 1.30916 0.00595504
811.334 1.33753 0.00623388
743.651 1.30847 0.00640042
687.219 1.28238 0.00678315
684.13 1.37142 0.00739742
584.7 1.32104 0.00779857
587.194 1.34191 0.00805089
538.493 1.30927 0.00824957
479.138 1.29712 0.00870713
466.32 1.34857 0.00926297
449.225 1.34765 0.00987176
424.799 1.36102 0.00986563
398.729 1.32128 0.0107357
378.141 1.33728 0.010852
352.281 1.29611 0.0110208
341.85 1.34536 0.0117459
329.277 1.30417 0.0122919
309.708 1.31712 0.0126874
285.664 1.2794 0.0134965
281.137 1.34963 0.0139724
269.694 1.35476 0.0150412
268.045 1.38036 0.0153561
252.112 1.37751 0.0161222
249.311 1.41637 0.0169167
227.089 1.35673 0.0173086
217.671 1.35861 0.0178812
208.899 1.33838 0.0181812
208.494 1.37112 0.0193942
197.642 1.36069 0.0195759
190.37 1.32159 0.0197462
182.401 1.39007 0.021608
175.193 1.33687 0.0216785
175.165 1.40039 0.023459
164.589 1.36897 0.0243484
161.686 1.40883 0.0245533
153.876 1.4218 0.0267788
148.364 1.42554 0.0267151
145.26 1.43292 0.0285851
134.416 1.33752 0.0265692
141.738 1.46622 0.030452
129.383 1.384 0.0293912
125.644 1.38567 0.0312181
120.412 1.34521 0.0305479
119.644 1.38651 0.0325056
113.216 1.38851 0.0334034
114.546 1.39977 0.0345995
112.061 1.41709 0.0355177
108.066 1.3879 0.0360729
101.722 1.38375 0.0371603
98.6491 1.34512 0.0372915
100.331 1.39259 0.0393382
95.2238 1.35729 0.039069
91.3294 1.35434 0.0404507
87.4284 1.29763 0.0395113
88.1129 1.37055 0.0426354
87.6444 1.33442 0.0428255
83.8286 1.32583 0.0432918
84.4429 1.35087 0.0452089
80.3758 1.39015 0.0477111
79.4555 1.32958 0.0468533
76.6218 1.35255 0.047093
72.7864 1.30298 0.0483228
74.2788 1.34207 0.0499172
72.275 1.38729 0.0532868
69.4853 1.30298 0.0503439
67.8348 1.36935 0.0553134
67.5201 1.38139 0.0549949
65.6375 1.3681 0.057419
66.3093 1.44292 0.0602241
62.6423 1.35666 0.059156
62.019 1.42033 0.0624282
58.8305 1.34658 0.0610992
58.5759 1.36242 0.0621779
58.9627 1.40021 0.0653397
55.747 1.39085 0.0657922
56.6612 1.3673 0.0659091
54.4413 1.35401 0.0673594
53.2523 1.36827 0.0684426
50.7534 1.34339 0.0697705
50.4704 1.3833 0.0720643
50.719 1.36251 0.0734577
49.5394 1.416 0.0743501
47.727 1.35168 0.0762689
47.9126 1.43252 0.0797734
46.1589 1.35983 0.0791082
45.5163 1.34652 0.0782825
45.2634 1.35991 0.0827319
44.578 1.38933 0.0827346
44.6459 1.36076 0.0855193
41.7097 1.37393 0.0859382
42.5562 1.40136 0.0897221
39.8476 1.39023 0.0896113
38.7236 1.36151 0.0902762
39.4443 1.3683 0.092153
39.1353 1.39508 0.0949851
39.2199 1.39868 0.0968774
37.733 1.39248 0.0983892
37.2046 1.40935 0.101232
38.5656 1.42488 0.104091
37.0097 1.4493 0.10655
36.2222 1.43091 0.107959
34.9384 1.37551 0.104671
35.2233 1.44379 0.111969
34.1998 1.39021 0.10869
33.7404 1.41131 0.113305
32.8836 1.38796 0.112168
33.2646 1.43497 0.118653
32.0918 1.43614 0.119286
32.3987 1.4206 0.120154
31.0897 1.43448 0.122024
31.3432 1.41266 0.122683
30.4805 1.36613 0.119388
30.5943 1.40946 0.127269
30.7152 1.44674 0.131015
27.9151 1.37888 0.128143
28.8242 1.43206 0.132251
26.6035 1.33325 0.127016
27.9408 1.4646 0.140586
27.1739 1.372 0.134631
26.3286 1.38305 0.137316
26.5367 1.41363 0.142386
25.6725 1.36612 0.139333
26.3717 1.39214 0.143316
25.6142 1.36595 0.143632
25.5127 1.44818 0.151279
24.724 1.43439 0.153046
24.0958 1.4709 0.1599
24.4564 1.39295 0.154445
23.7914 1.41286 0.155927
22.8421 1.36936 0.156836
24.4517 1.43854 0.162185
23.2195 1.40254 0.163859
23.0055 1.47178 0.17156
22.9941 1.40032 0.166937
23.2094 1.45349 0.173793
21.8952 1.37585 0.168498
21.9099 1.40572 0.172261
21.4271 1.40439 0.17645
21.1852 1.48392 0.187156
20.6941 1.41971 0.182026
20.6686 1.38136 0.177764
20.3641 1.4613 0.19159
20.2148 1.39877 0.186125
20.1758 1.46471 0.195894
20.5799 1.43361 0.195327
19.781 1.43643 0.197839
19.4559 1.46575 0.202693
19.3323 1.43343 0.202492
18.9902 1.42965 0.202937
18.8368 1.36878 0.196908
18.5579 1.40933 0.202871
18.7321 1.40516 0.206293
18.4634 1.40331 0.207644
17.5219 1.3444 0.202156
17.5822 1.4307 0.215851
17.6409 1.46583 0.226944
17.0867 1.4377 0.221987
17.3126 1.47059 0.230386
17.4541 1.44974 0.227862
16.8954 1.44401 0.230909
16.4677 1.43696 0.23353
17.2131 1.47065 0.240734
16.8186 1.46784 0.239513
16.399 1.47063 0.244832
16.4719 1.48135 0.249208
15.3561 1.41393 0.243371
16.2469 1.41458 0.242578
15.7142 1.45485 0.253311
15.4319 1.3958 0.246498
15.4177 1.49196 0.263843
15.7581 1.49218 0.267997
14.3614 1.44153 0.26159
15.0649 1.46019 0.266762
14.2894 1.43838 0.267606
13.9199 1.37925 0.258674
14.4636 1.46376 0.273677
14.2543 1.45328 0.276254
14.4532 1.4364 0.277631
13.8571 1.44302 0.280189
13.5082 1.41042 0.27518
13.8844 1.43165 0.284005
13.7025 1.43999 0.284369
13.6159 1.48169 0.298345
13.4997 1.48532 0.301694
12.9835 1.41339 0.28979
13.6258 1.49985 0.311175
12.8664 1.40422 0.292617
12.7494 1.40067 0.29656
12.5117 1.36472 0.292594
12.9736 1.47735 0.317902
12.0918 1.41017 0.310669
12.7558 1.42627 0.311428
12.2841 1.46958 0.326664
12.2573 1.44511 0.325804
12.0952 1.46147 0.325644
11.9667 1.44609 0.329332
11.7839 1.44107 0.332
11.7911 1.44579 0.333727
11.8658 1.51497 0.352473
11.6724 1.47428 0.344603
11.1846 1.45725 0.346154
11.372 1.50368 0.360721
11.3695 1.46671 0.353826
11.0493 1.45701 0.353576
11.1763 1.47635 0.357236
11.4139 1.52447 0.374089
10.7491 1.4452 0.362457
11.0122 1.48568 0.375739
10.7713 1.42657 0.360335
10.894 1.44836 0.371573
10.2327 1.42204 0.366018
10.448 1.45402 0.37759
10.9142 1.52649 0.39851
9.9759 1.48182 0.393795
10.3762 1.50249 0.40232
9.88011 1.44626 0.385683
9.91963 1.45914 0.396471
9.85775 1.47386 0.404988
10.1513 1.49727 0.410521
9.89102 1.43269 0.401685
9.61201 1.4398 0.404042
9.6349 1.46446 0.412226
10.0123 1.51598 0.431628
9.47535 1.48631 0.427958
9.46223 1.47738 0.429205
9.25461 1.44713 0.420126
8.9933 1.43933 0.421322
9.14367 1.4531 0.432142
8.96988 1.44481 0.426162
9.22983 1.51346 0.457686
9.28512 1.49499 0.451713
9.05009 1.4794 0.451231
9.0403 1.51961 0.46712
8.83663 1.49899 0.464712
8.87922 1.55091 0.487113
8.87888 1.52228 0.478881
8.72913 1.53596 0.48253
8.51568 1.54488 0.497077
8.47171 1.48076 0.476491
8.58848 1.45587 0.475728
8.25538 1.42848 0.464564
8.4194 1.51867 0.501819
8.38822 1.48823 0.490421
8.19454 1.42053 0.471461
8.30335 1.48462 0.500502
8.02606 1.4926 0.505581
7.89249 1.45542 0.494395
8.30793 1.53512 0.523249
8.07475 1.50019 0.514347
8.25605 1.51862 0.529315
7.70677 1.49763 0.525333
7.96731 1.50604 0.534549
7.70522 1.48243 0.528846
7.392 1.46988 0.523488
7.79678 1.5757 0.567511
7.90918 1.54488 0.555943
7.7079 1.56597 0.570095
7.39029 1.5052 0.56053
7.65697 1.61049 0.595919
7.66134 1.60698 0.601819
7.52845 1.54416 0.581003
7.75981 1.66498 0.628392
7.84186 1.62028 0.610084
7.34883 1.55651 0.605018
7.5898 1.68067 0.638433
7.30101 1.57262 0.604965
7.38503 1.57758 0.61821
7.11384 1.56066 0.621361
7.22767 1.5438 0.613051
7.23242 1.5886 0.62809
6.92079 1.46985 0.59105
6.81094 1.52662 0.618257
6.93849 1.59246 0.644922
6.93373 1.53703 0.626797
6.6477 1.50835 0.621907
6.66542 1.57813 0.654407
6.82333 1.57934 0.659372
6.86532 1.55278 0.650807
6.5346 1.46291 0.622867
6.64711 1.54949 0.653676
6.65184 1.62166 0.692262
6.54017 1.54127 0.667342
6.59974 1.57196 0.683148
6.47193 1.51305 0.661455
6.38896 1.54857 0.670447
6.47242 1.56646 0.691567
6.54994 1.60688 0.71416
6.23062 1.56007 0.704454
6.17922 1.53643 0.682763
6.10353 1.52642 0.693892
6.15835 1.56454 0.704055
5.92559 1.53964 0.707784
6.07228 1.50221 0.689051
5.9817 1.56847 0.723678
6.01458 1.60427 0.751041
6.27125 1.61518 0.7628
6.01614 1.54774 0.731575
6.03938 1.60654 0.763765
5.80989 1.59464 0.756983
5.90678 1.54728 0.745667
5.90295 1.55375 0.747979
6.03134 1.6436 0.797962
5.85126 1.60775 0.790588
5.71178 1.5696 0.771956
5.78006 1.60327 0.793472
5.69474 1.54756 0.766927
5.68683 1.56639 0.784251
5.66874 1.62266 0.823705
5.46105 1.5799 0.810326
5.86389 1.65716 0.831269
5.78127 1.58386 0.811406
5.74717 1.62027 0.828336
5.60472 1.59937 0.825787
5.42822 1.56902 0.820181
5.45239 1.57237 0.826035
5.36405 1.56283 0.826463
5.22921 1.57838 0.838335
5.45646 1.60239 0.845474
5.26047 1.55195 0.826361
5.33278 1.59691 0.863544
5.29435 1.60777 0.871071
5.17657 1.58699 0.860334
5.20366 1.64535 0.903487
5.15365 1.63095 0.893837
5.48192 1.64037 0.906181
5.08046 1.5813 0.88458
5.30334 1.64688 0.921735
5.07965 1.6433 0.931817
5.13385 1.61341 0.903817
5.12084 1.62063 0.920687
5.13979 1.67909 0.95188
5.04238 1.61468 0.931585
5.09555 1.6136 0.93253
5.1628 1.66055 0.96854
5.17037 1.64306 0.958953
5.05101 1.67157 0.981189
5.01987 1.71745 1.01007
4.7506 1.56472 0.936648
4.89613 1.7032 1.01277
4.81983 1.68888 1.00968
4.85952 1.58961 0.960779
4.83202 1.71955 1.03946
4.94117 1.6627 1.01349
4.70054 1.63414 1.00006
4.55172 1.56062 0.952422
4.56646 1.61915 1.00311
4.69692 1.71387 1.06534
4.86397 1.72073 1.08211
4.75655 1.65278 1.03451
4.71287 1.72003 1.08116
4.67853 1.6756 1.06401
4.68058 1.71143 1.09365
4.59954 1.65633 1.0419
4.56228 1.65903 1.08602
4.6194 1.67697 1.08533
4.58991 1.67009 1.08726
4.56797 1.67063 1.07907
4.52006 1.75914 1.14729
4.33076 1.67395 1.10315
4.34784 1.61778 1.08351
4.54374 1.7025 1.12198
4.56567 1.67272 1.10514
4.36198 1.69006 1.13747
4.47023 1.69981 1.14093
4.39279 1.7541 1.18039
4.23833 1.62805 1.11467
4.33797 1.65522 1.13181
4.57387 1.73691 1.18743
4.332 1.66605 1.16498
4.13961 1.69026 1.18136
4.1435 1.63632 1.15156
4.11263 1.58212 1.09515
4.06568 1.67927 1.18416
4.32265 1.72887 1.21948
4.19218 1.71497 1.22134
4.11329 1.67253 1.20848
4.29453 1.80536 1.28358
4.0432 1.68641 1.21468
3.99511 1.71421 1.24575
4.00864 1.68269 1.22812
4.10032 1.6381 1.20662
4.06064 1.7709 1.29288
4.04569 1.69196 1.24364
3.93079 1.68082 1.23705
4.14148 1.81735 1.36168
3.97747 1.76537 1.31909
3.97061 1.70822 1.27894
3.80767 1.65255 1.26053
4.0485 1.75884 1.32964
3.8607 1.76097 1.33305
3.84992 1.72808 1.32127
3.80784 1.74964 1.34701
3.97085 1.74328 1.37398
3.81345 1.74153 1.33027
3.82152 1.75685 1.37599
3.75473 1.69924 1.33815
3.84515 1.81807 1.44386
3.76981 1.67828 1.34452
3.97212 1.82941 1.42867
3.86252 1.76491 1.38669
3.93549 1.85963 1.48888
3.74366 1.69959 1.34541
3.80948 1.72643 1.39696
3.73765 1.75725 1.44152
3.71312 1.81582 1.476
3.74449 1.73738 1.43301
3.71414 1.82005 1.48974
3.74706 1.78196 1.48484
3.56417 1.71608 1.41849
3.65128 1.77714 1.49868
3.72757 1.81198 1.523
3.57186 1.72421 1.43633
3.39752 1.72163 1.47284
3.68037 1.79655 1.50669
3.56125 1.73437 1.46381
3.56559 1.80823 1.52063
3.56073 1.78707 1.52615
3.56183 1.75196 1.55484
3.53778 1.77416 1.51588
3.61967 1.85399 1.6128
3.50702 1.77427 1.57429
3.50363 1.78475 1.5478
3.50883 1.78657 1.54722
3.51739 1.82236 1.61171
3.34464 1.71154 1.51993
3.45813 1.8173 1.62547
3.35175 1.7761 1.58606
3.46205 1.78135 1.62084
3.50166 1.79259 1.61377
3.45786 1.79863 1.62339
3.42508 1.7748 1.61756
3.31258 1.71909 1.59062
3.41363 1.80204 1.63276
3.29949 1.76124 1.59749
3.3654 1.90598 1.76616
3.26938 1.75073 1.62189
3.29259 1.7524 1.63643
3.35976 1.89012 1.75269
3.27851 1.81081 1.69426
3.31464 1.78303 1.69071
3.29841 1.792 1.6954
3.33032 1.89475 1.78367
3.17547 1.80986 1.72021
3.16725 1.75061 1.68975
3.21675 1.81873 1.73051
3.13156 1.76961 1.70257
3.1341 1.84219 1.79313
3.13006 1.77505 1.72079
3.21532 1.83765 1.78744
3.1523 1.80277 1.75067
3.17532 1.85142 1.8458
3.10627 1.82982 1.8025
3.19822 1.91099 1.89194
3.10249 1.80473 1.78621
3.03932 1.79121 1.81271
3.168 1.91517 1.91336
3.07757 1.82898 1.83637
3.18258 1.87312 1.86263
3.05691 1.85482 1.89682
3.11886 1.8701 1.88776
3.01749 1.85662 1.9048
3.09112 1.93296 1.95496
2.91654 1.79226 1.84611
3.02828 1.81044 1.84985
3.10273 1.86342 1.93795
3.00354 1.82435 1.91913
2.97114 1.81384 1.89093
2.99841 1.87947 1.96822
2.96761 1.88755 2.00597
3.01137 1.90702 1.99871
2.94602 1.87694 1.96548
2.87543 1.77914 1.91037
2.83468 1.85232 1.97278
2.93495 1.83851 1.97111
3.04179 1.95362 2.07953
2.84268 1.83329 2.00977
2.99104 1.87088 2.01834
2.89184 1.89846 2.01865
2.77117 1.79696 2.00359
3.0433 1.97232 2.11824
2.88806 1.89373 2.08843
2.84213 1.92343 2.11113
2.86305 1.83191 2.02459
2.8339 1.96267 2.17385
2.82468 1.85304 2.07134
2.84275 1.93535 2.13032
2.88011 1.89038 2.09445
2.80168 1.93007 2.16737
2.74887 1.88873 2.17011
2.85326 1.85455 2.10889
2.78698 1.87509 2.14016
2.66591 1.91117 2.20267
2.76719 1.96243 2.23012
2.7924 1.88943 2.18349
2.85155 1.98721 2.27535
2.62626 1.87237 2.17815
2.77568 1.91947 2.2168
2.72276 1.90497 2.23586
2.72353 1.84449 2.17028
2.7162 1.89534 2.2098
2.78362 1.99057 2.38804
2.75727 1.92756 2.24896
2.64465 1.90883 2.25178
2.60327 2.01827 2.38316
2.67952 1.91267 2.27657
2.46122 1.75743 2.14763
2.65331 1.92358 2.28748
2.67697 1.93954 2.33234
2.7156 2.04659 2.46321
2.7119 1.98332 2.38776
2.63777 1.93648 2.35187
2.6093 1.94982 2.43487
2.66027 1.90318 2.30462
2.58455 1.98349 2.43941
2.67137 1.97744 2.42773
2.61577 1.90808 2.3627
2.63856 2.00477 2.48523
2.64999 1.96708 2.48615
2.60158 1.9613 2.40508
2.61011 2.01604 2.52663
2.59142 1.9536 2.43688
2.61538 1.9446 2.44895
2.55835 1.98678 2.51453
2.65825 2.03193 2.55683
2.47197 1.98345 2.52308
2.51862 1.97001 2.54041
2.56804 2.04153 2.61132
2.53961 2.01368 2.62796
2.53098 1.96659 2.5379
2.54082 2.00043 2.55392
2.5273 2.04587 2.65833
2.47753 2.01835 2.66917
2.53233 1.96826 2.55335
2.52745 2.09533 2.76668
2.53218 2.0862 2.69977
2.4933 1.97037 2.60554
2.55898 2.06222 2.70359
2.52064 2.01404 2.68847
2.47715 2.0367 2.71958
2.42208 2.11914 2.86099
2.46443 2.09773 2.8034
2.45165 2.00332 2.69958
2.55349 2.08754 2.78578
2.43235 2.07435 2.80203
2.46942 2.1424 2.93563
2.49126 2.1312 2.91275
2.42882 2.1868 2.96573
2.53222 2.21797 3.0198
2.51338 2.21088 3.01929
2.55442 2.25584 3.19711
2.73584 2.26107 3.04183
2.49883 2.16806 3.08625
2.66301 2.41515 3.27161
2.54534 2.25321 3.18826
2.51241 2.1851 2.97514
2.40515 2.07009 2.91781
2.39625 2.134 3.02872
2.47505 2.2082 3.04452
2.3432 2.12635 3.03919
2.46015 2.14711 2.98769
2.41779 2.1876 3.12391
2.36098 2.12965 2.97792
2.25214 2.04624 2.98609
2.39522 2.17144 3.07001
2.26479 2.041 2.91909
2.30014 2.03292 3.00015
2.33555 2.15567 3.09824
2.2844 2.0149 2.91609
2.32635 2.13804 3.10906
2.33409 2.14412 3.11171
2.27851 2.00639 2.96374
2.29444 2.16226 3.14195
2.33517 2.13712 3.10327
2.25071 2.07829 3.08864
2.30073 2.0589 3.05403
2.26507 2.12323 3.2072
2.3337 2.1067 3.12
2.17159 2.0487 3.00391
2.22376 2.11366 3.13942
2.31178 2.12339 3.16377
2.16494 2.07991 3.23547
2.26061 2.16877 3.26083
2.24793 2.12884 3.23497
2.2074 2.04239 3.11916
2.20234 2.12405 3.23599
2.15793 2.14547 3.28994
2.12429 2.05758 3.16699
2.25977 2.08529 3.20996
2.17737 2.06833 3.17406
2.1746 2.15223 3.31426
2.24723 2.15082 3.2971
2.16135 2.11072 3.25959
2.1684 2.12353 3.32169
2.21813 2.15988 3.31405
2.12811 2.07858 3.34814
2.19506 2.08636 3.23349
2.16312 2.12642 3.37023
2.24068 2.29812 3.53045
2.05123 2.13713 3.39382
2.10364 2.13019 3.38212
2.03474 2.02485 3.31517
2.15126 2.17492 3.44874
2.10182 2.14308 3.45933
2.13024 2.11841 3.41043
2.18712 2.13728 3.47183
2.16558 2.2096 3.4821
2.10954 2.24597 3.61781
2.0446 2.14298 3.45393
2.16124 2.16486 3.56849
2.06364 2.18289 3.61492
2.22014 2.28666 3.59965
2.00082 2.15242 3.57099
2.1152 2.28859 3.68408
2.12701 2.15598 3.59558
2.11698 2.19864 3.64506
2.14519 2.14605 3.48265
2.03085 2.15034 3.69667
2.07263 2.209 3.57072
1.94386 2.09514 3.49691
2.05258 2.23574 3.73268
2.0925 2.21764 3.75449
2.0572 2.17331 3.65399
2.02234 2.11694 3.56052
1.97948 2.11951 3.53423
1.98973 2.2166 3.75291
2.02337 2.21251 3.68482
1.95232 2.09742 3.67621
2.04152 2.17404 3.68446
1.99031 2.2268 3.75612
2.04452 2.19449 3.69537
2.02158 2.15483 3.78378
2.05388 2.28405 4.01856
2.01216 2.11105 3.57087
1.97831 2.24719 3.97992
2.02563 2.29047 3.94589
1.96971 2.15283 3.80723
2.05473 2.31082 3.99829
2.03763 2.25167 3.90837
2.03983 2.25902 3.84574
1.89214 2.15646 3.85333
1.97495 2.19444 3.93722
2.07509 2.32532 3.96545
1.91956 2.24499 4.10722
1.89257 2.12317 3.72683
1.8823 2.16966 3.84071
1.88412 2.17254 3.85678
1.93634 2.1803 3.97003
1.97478 2.24757 3.97661
1.88889 2.14499 3.83196
1.96272 2.17443 3.96709
1.92613 2.30096 4.14211
1.95319 2.20518 4.04236
1.97813 2.27359 4.13344
1.8935 2.20729 4.01906
1.89756 2.16563 3.98172
1.91059 2.34197 4.35661
1.94143 2.27563 4.18226
1.94398 2.30484 4.17904
1.99875 2.36147 4.25303
1.92829 2.27346 4.24666
1.83218 2.24184 4.12611
1.89252 2.20843 4.06214
1.90812 2.24628 4.14839
1.85246 2.22899 4.19976
1.89853 2.33892 4.29342
1.85742 2.23351 4.18913
1.8935 2.33953 4.38325
1.84962 2.2718 4.25924
1.85721 2.23522 4.22457
1.83859 2.23488 4.2721
1.87853 2.30434 4.30187
1.83508 2.21266 4.28836
1.93466 2.37939 4.49754
1.84152 2.29326 4.33241
1.83521 2.21596 4.31926
1.92556 2.31068 4.3613
1.84254 2.30376 4.42609
1.85461 2.34075 4.48967
1.88292 2.26884 4.34517
1.84787 2.21439 4.28901
1.85571 2.3365 4.5066
1.88868 2.34235 4.45769
1.78743 2.25588 4.49625
1.8297 2.23945 4.27148
1.83169 2.34164 4.61301
1.83604 2.35366 4.59337
1.77634 2.25088 4.36658
1.81536 2.30886 4.63181
1.8464 2.40944 4.722
1.86248 2.35322 4.66384
1.8431 2.33659 4.60935
1.83379 2.32908 4.6427
1.77824 2.34094 4.74489
1.8656 2.38838 4.72203
1.80759 2.30512 4.62772
1.82966 2.35589 4.73259
1.80191 2.29654 4.51705
1.79855 2.29711 4.6095
1.73474 2.32251 4.66233
1.80799 2.44783 4.86983
1.7731 2.36219 4.88676
1.77336 2.29287 4.68947
1.79274 2.37034 4.84016
1.83917 2.47636 4.92767
1.74407 2.28414 4.68078
1.80771 2.38849 4.92337
1.80272 2.40507 4.94083
1.84565 2.45011 4.91365
1.70291 2.32018 4.81742
1.79024 2.33922 4.83741
1.70075 2.37082 4.88803
1.75804 2.38888 5.09126
1.80321 2.4248 4.88673
1.72459 2.44092 5.15897
1.81777 2.53348 5.33088
1.8222 2.39345 4.85458
1.6892 2.41239 5.05315
1.73235 2.43594 5.18342
1.76875 2.35185 4.79517
1.71867 2.41464 5.14452
1.72703 2.35138 4.94332
1.73865 2.45438 5.16987
1.75142 2.37192 4.9517
1.67091 2.39186 5.0879
1.7237 2.38376 5.06221
1.74656 2.55337 5.49285
1.78933 2.32815 5.07689
1.77752 2.41118 5.04873
1.70682 2.4391 5.22313
1.73855 2.52635 5.48796
1.75007 2.4281 5.37095
1.73709 2.43294 5.17538
1.73316 2.41347 5.12799
1.67577 2.35715 5.17731
1.78814 2.5048 5.30959
1.65545 2.34575 5.17857
1.69904 2.45794 5.44306
1.74303 2.43912 5.28442
1.69507 2.39535 5.34116
1.72772 2.45197 5.40766
1.74569 2.54059 5.45705
1.7025 2.52747 5.63052
1.73599 2.43355 5.31445
1.6787 2.41896 5.34338
1.65102 2.351 5.34928
1.69336 2.49507 5.59227
1.75689 2.5198 5.46646
1.61998 2.41521 5.36937
1.60571 2.51766 5.68762
1.70865 2.46479 5.62987
1.75362 2.578 5.67589
1.72574 2.58373 5.73807
1.61542 2.34259 5.45439
1.68565 2.58143 5.81355
1.70026 2.57907 5.8192
1.67904 2.58702 5.80314
1.63281 2.446 5.49199
1.63092 2.43194 5.44778
1.60897 2.42196 5.64617
1.67653 2.46559 5.62168
1.69466 2.48575 5.60299
1.69469 2.58007 5.68758
1.6361 2.58509 6.0296
1.66957 2.57175 5.89769
1.66114 2.41053 5.6245
1.73544 2.63434 5.98136
1.628 2.50537 5.652
1.54734 2.388 5.62908
1.6969 2.61386 5.98131
1.62263 2.54815 6.12231
1.69023 2.55791 5.95451
1.64383 2.55074 5.91208
1.6021 2.54584 5.94771
1.68627 2.62232 6.0933
1.66588 2.49167 5.81709
1.65215 2.6849 6.14018
1.55545 2.46828 5.97195
1.62877 2.54252 5.93231
1.61224 2.56086 6.15129
1.60401 2.60496 5.97407
1.56198 2.54476 6.12662
1.60841 2.57264 6.1019
1.63016 2.60455 6.35155
1.67162 2.60667 6.23498
1.61647 2.57246 6.00275
1.62931 2.66273 6.48615
1.61962 2.64689 6.27045
1.68227 2.68673 6.43692
1.63792 2.65153 6.30234
1.5942 2.6725 6.44131
1.61651 2.62594 6.31799
1.57454 2.58082 6.18058
1.55221 2.60798 6.26138
1.58353 2.61981 6.55669
1.63682 2.57979 6.16824
1.56246 2.54566 6.36756
1.63091 2.6422 6.43473
1.63952 2.63485 6.31449
1.60698 2.64831 6.40877
1.55956 2.61233 6.5577
1.62811 2.79342 6.91567
1.65047 2.58898 6.13669
1.51076 2.54919 6.44517
1.57734 2.6337 6.34843
1.57957 2.6729 6.62064
1.54502 2.62359 6.6604
1.61276 2.68457 6.56063
1.59001 2.60886 6.4825
1.49327 2.44411 6.18864
1.54487 2.69234 6.66396
1.56701 2.67613 6.61747
1.56997 2.69405 6.93146
1.62115 2.75586 6.78448
1.55323 2.62455 6.5835
1.56483 2.69152 6.61962
1.59078 2.70774 6.87141
1.56545 2.68899 6.71458
1.51293 2.54137 6.74507
1.54013 2.68109 6.73982
1.60939 2.8038 7.05204
1.58844 2.80826 6.93356
1.55886 2.71419 7.06487
1.55241 2.65717 6.59978
1.47415 2.59644 6.73169
1.50887 2.7396 7.17441
1.62739 2.77637 6.99283
1.52986 2.70906 6.8268
1.52692 2.68913 7.12168
1.64009 2.90462 7.52966
1.59085 2.8087 7.30143
1.65021 2.81638 7.02949
1.56082 2.89427 7.58627
1.62368 2.94543 7.55369
1.6177 2.83602 7.48026
1.54649 2.85046 7.59287
1.56232 2.93189 7.64856
1.6509 3.08171 8.14123
1.78728 3.45038 8.84458
1.88881 3.26743 8.07688
1.59119 2.79107 7.88168
1.83902 3.41219 8.75718
1.69643 3.05408 7.89532
1.5665 2.93527 7.75076
1.55178 2.8964 7.68155
1.62434 2.9352 7.70812
1.57702 2.96316 7.79902
1.53763 2.82546 7.30761
1.51069 2.79125 7.43617
1.5069 2.75772 7.48546
1.50898 2.83306 7.73412
1.53968 2.77551 7.34962
1.55861 2.67234 7.17921
1.52118 2.79791 7.28618
1.48256 2.79263 7.47621
1.52385 2.9039 7.8955
1.58398 2.87414 7.59924
1.49264 2.85323 7.68236
1.55074 2.82958 7.5764
1.54514 2.8585 7.63251
1.558 2.83284 7.60298
1.51622 2.89933 7.91246
1.54713 2.79726 7.37305
1.46408 2.69111 7.36927
1.4727 2.78449 7.62757
1.48755 2.72423 7.41413
1.50856 2.80716 7.7089
1.52034 2.74786 7.53414
1.43853 2.70925 7.46384
1.45394 2.7455 7.32657
1.43675 2.82385 7.93522
1.50191 2.85716 7.81278
1.45505 2.7312 7.14624
1.41387 2.64006 7.52193
1.46212 2.83219 7.89122
1.47056 2.74608 7.59397
1.48853 2.82001 7.774
1.51111 2.87908 7.71959
1.39931 2.68444 7.53913
1.45966 2.73749 7.73906
1.46726 2.82467 7.70547
1.42438 2.81032 7.80439
1.48559 2.78233 7.86373
1.49982 2.80227 7.71155
1.39895 2.74485 7.71987
1.42048 2.7493 7.84171
1.43187 2.70245 7.61332
1.4365 2.76611 7.69373
1.41069 2.86807 8.30756
1.48821 2.91827 8.11487
1.48543 2.78089 8.0133
1.44948 2.8321 7.69829
1.41612 2.82757 8.11232
1.46375 2.82688 8.17571
1.47241 2.98301 8.34488
1.44859 2.82674 8.04073
1.44417 2.75544 8.1539
1.47292 2.87699 7.84462
1.40774 2.82674 7.88962
1.40845 2.71437 7.74991
1.40311 2.86085 8.33672
1.48123 2.85282 8.10538
1.40632 2.75816 7.93817
1.395 2.88246 8.14924
1.37508 2.79769 8.15754
1.43427 2.66772 7.71069
1.42256 2.85527 8.18694
1.4351 2.80782 8.26812
1.4652 2.8575 8.19196
1.39763 2.82501 7.98493
1.39024 2.81234 8.36039
1.45497 2.94294 8.64851
1.46333 2.8712 7.97398
1.40104 2.89031 8.27894
1.36097 2.77082 8.21652
1.36645 2.75829 8.20152
1.40008 2.77836 7.95435
1.34505 2.86195 8.5389
1.41788 2.78278 8.12056
1.3682 2.80689 8.55185
1.38773 2.89041 8.33738
1.36873 2.70501 8.23777
1.46299 2.96753 8.70306
1.4308 2.89131 8.34363
1.38785 2.74447 8.19159
1.40301 2.86753 8.39734
1.38096 2.83097 7.97734
1.30978 2.82511 8.59288
1.39502 2.85143 8.67456
1.41057 2.90739 8.71208
1.37309 2.97621 8.70427
1.36649 2.74772 8.28162
1.35705 2.86949 8.54346
1.36507 2.83671 8.35418
1.31092 2.75162 8.64642
1.43296 2.83823 8.57386
1.40139 2.89508 8.58528
1.35092 2.80954 8.86553
1.44497 2.91737 8.42859
1.37416 2.99076 8.98864
1.31635 2.70703 8.30013
1.3972 2.97695 8.69759
1.36246 2.8557 8.58792
1.40362 2.9471 8.94281
1.37552 2.86432 8.73701
1.37894 2.96078 8.9606
1.3894 2.87381 8.82715
1.37007 2.75205 8.59132
1.39144 2.90203 8.63799
1.34593 2.79636 8.68583
1.35272 2.79383 8.46699
1.35836 2.94222 9.18194
1.43928 2.97229 8.76171
1.32755 2.91032 9.13431
1.39141 2.92676 9.02194
1.35759 2.93834 9.07234
1.37884 2.95058 8.71454
1.30985 2.83973 8.88844
1.32717 2.84254 8.65524
1.33654 2.876 9.0509
1.34737 2.81176 8.91693
1.36363 2.90838 9.17063
1.44608 3.05063 8.84336
1.294 2.89155 9.30941
1.34456 2.83424 8.66538
1.25872 2.78707 8.94117
1.35316 2.79204 8.64233
1.27292 2.79787 8.81217
1.31967 2.81745 8.76699
1.34974 3.0021 9.50232
1.37298 2.96219 9.13344
1.33081 2.96957 9.1754
1.31853 2.90034 9.28158
1.3365 2.94155 8.75022
1.33237 2.85535 8.99795
1.35231 2.94946 9.55093
1.33927 2.94696 9.10963
1.31381 2.90973 9.28443
1.30345 2.75771 8.89647
1.29322 2.94247 9.01301
1.29582 2.81044 8.8679
1.32472 3.02936 9.60508
1.30195 2.87129 9.1259
1.29842 2.92804 9.0926
1.29804 2.88025 9.31248
1.31545 2.85964 8.88417
1.27411 2.84881 9.19477
1.31641 2.90172 9.28654
1.34169 3.02381 9.84661
1.35774 3.01393 9.49909
1.31427 2.93544 9.32004
1.30345 2.92087 9.21678
1.26845 2.93875 9.6494
1.31504 2.91659 9.503
1.31793 2.87787 9.05592
1.29063 2.88085 9.2955
1.3053 2.92659 9.44065
1.29285 2.88476 9.45119
1.29683 2.83296 9.38925
1.32203 2.94373 9.16401
1.32108 3.02428 9.48952
1.32007 2.91649 9.55417
1.32409 2.98238 9.89428
1.33862 3.15309 10.0657
1.31086 2.94497 9.22351
1.26778 2.94316 9.6235
1.28598 2.95104 9.65974
1.26162 2.86376 9.61699
1.32943 2.94347 8.99934
1.22837 2.87012 9.57365
1.26978 2.91645 9.69442
1.30052 3.00389 9.8313
1.29422 2.89837 9.61733
1.29758 2.94809 9.26202
1.25034 2.9112 9.63002
1.27462 2.97112 9.61568
1.24635 2.80684 9.55955
1.26605 2.9861 9.79422
1.24454 2.86228 9.29152
1.26899 2.97767 9.78054
1.27047 2.93212 9.66366
1.24618 2.89323 9.8313
1.31575 3.07255 9.68123
1.22868 2.93306 10.0257
1.30573 3.02421 10.0097
1.28117 2.99003 9.91748
1.30961 2.97535 9.95922
1.28469 2.86843 9.18425
1.18882 2.95111 10.2486
1.29787 2.8594 9.6861
1.25515 2.86627 9.32563
1.23491 2.91269 9.61682
1.24055 2.86744 9.64936
1.24014 3.03292 10.2332
1.25003 3.0124 10.0146
1.29243 2.97176 9.71457
1.22883 2.85917 9.52033
1.21962 2.80927 9.59689
1.26036 3.0511 10.5558
1.34816 2.94649 9.67245
1.23044 3.06135 10.1031
1.23153 2.99501 10.4506
1.2705 2.98018 9.77194
1.22924 2.92477 9.98065
1.2742 2.9457 9.98169
1.26584 2.94811 10.0928
1.26277 2.9828 10.0712
1.23935 3.07929 10.4191
1.29291 2.99058 10.1145
1.23668 2.88716 9.64101
1.24085 2.96613 9.90496
1.25254 2.94171 9.94625
1.21659 2.83867 9.89004
1.24602 3.06059 10.3491
1.28543 3.02347 10.2604
1.26651 3.00643 10.3198
1.22802 2.89107 9.65283
1.15475 2.89924 10.2866
1.28923 3.08973 10.564
1.29257 3.12268 10.4771
1.24632 3.09698 10.9206
1.28807 3.05702 10.2659
1.20795 3.04103 10.6336
1.25887 3.05186 10.2744
1.24351 3.05146 10.2212
1.24651 3.03508 10.6138
1.26093 2.97723 10.3013
1.21392 2.99297 10.2269
1.23242 2.90018 10.2045
1.21674 2.9173 10.26
1.22274 3.05776 10.5474
1.28342 3.0416 10.1838
1.23901 3.05531 10.6132
1.20504 3.00643 10.7738
1.2987 3.09286 10.6686
1.24105 2.94534 9.99539
1.17192 2.98165 10.6977
1.2591 3.04884 10.3052
1.20943 2.89961 10.274
1.2211 3.20362 10.9762
1.2434 2.92837 10.2708
1.20777 2.97841 10.3958
1.21267 3.01617 10.6149
1.22213 2.99954 10.5128
1.2296 2.94095 10.7213
1.25072 3.10357 10.451
1.21105 2.94416 10.452
1.20512 3.123 10.7782
1.24607 3.08573 10.9573
1.2596 3.11403 10.7765
1.22463 3.04075 10.5395
1.25045 3.09536 10.7604
1.2164 3.03683 10.6561
1.22211 2.98793 10.8654
1.24654 3.1477 11.4117
1.29577 3.19439 11.1189
1.25039 3.08418 10.6564
1.2186 2.96224 10.8384
1.24216 3.13276 10.7433
1.17291 3.0698 10.9132
1.20482 3.11257 10.8613
1.24521 3.06344 11.1253
1.2445 3.13386 10.8786
1.20528 3.05173 10.7248
1.19864 3.06798 10.9611
1.23833 3.0828 10.7275
1.2047 3.0971 11.5312
1.26095 3.0753 11.1692
1.24807 3.08131 10.6915
1.1984 3.24154 11.5661
1.22685 3.11166 11.559
1.27459 3.26022 11.2389
1.24026 3.15692 11.355
1.24294 3.1624 11.2147
1.23999 3.18003 11.5399
1.20776 3.21808 11.5296
1.23866 3.08646 11.1139
1.29107 3.24715 11.6852
1.24399 3.11294 11.3847
1.27158 3.26204 11.5537
1.23006 3.1329 11.1817
1.20126 3.14351 11.4028
1.23182 3.24391 12.0207
1.29957 3.38761 12.0011
1.21096 3.23263 11.8822
1.27408 3.46122 12.9085
1.36698 3.88614 14.5198
1.60582 3.9493 12.8766
1.27936 3.45234 13.9684
1.47691 3.96408 14.1525
1.46557 3.71711 12.8052
1.31325 3.42899 12.5884
1.27477 3.46422 12.3111
1.27405 3.3002 12.1713
1.26222 3.34567 12.1416
1.27361 3.41481 12.2305
1.25299 3.21447 11.8897
1.25891 3.36311 11.8385
1.23721 3.1781 11.6315
1.20017 3.35607 11.9243
1.25758 3.18444 11.8277
1.23764 3.20257 11.758
1.26025 3.29487 11.9832
1.23393 3.09526 10.9927
1.19282 3.15861 11.6057
1.18133 2.95949 11.1941
1.20833 3.07654 11.0426
1.20482 3.16401 11.5225
1.17576 3.00441 11.2489
1.19017 3.04204 11.2875
1.20954 3.30391 11.8488
1.18524 3.09016 11.5442
1.19829 2.97558 11.0699
1.22661 3.10878 11.0521
1.14205 3.01982 11.0322
1.17099 2.98868 11.0172
1.16213 2.96898 11.1179
1.16163 3.21714 11.839
1.20092 3.00095 11.1075
1.18797 3.12832 11.5522
1.22667 3.12974 11.5469
1.20917 3.1818 11.512
1.19435 2.9473 11.098
1.18324 3.17722 11.5018
1.16346 3.03119 11.0687
1.14644 3.15555 11.5669
1.15597 2.97542 11.4713
1.21765 3.13313 11.6805
1.17736 3.1003 11.3982
1.1574 3.06347 11.6699
1.16636 3.18763 11.5162
1.17911 3.13887 11.6186
1.19051 3.17673 11.7436
1.1812 3.02608 11.3555
1.14319 3.13784 10.8878
1.12174 2.86151 11.2342
1.14363 3.02331 11.5939
1.18065 3.24054 11.6662
1.16503 3.22832 12.2109
1.1969 3.00111 11.2018
1.14782 3.01363 11.1502
1.15183 3.05683 11.7681
1.14521 3.10131 11.3957
1.14099 3.02339 11.2101
1.14445 3.12706 11.7439
1.18861 3.07389 11.6234
1.14757 3.17935 11.7483
1.17901 2.97502 10.979
1.14292 3.09764 11.944
1.19822 3.20672 12.1101
1.20191 3.04204 11.1073
1.0966 3.10286 11.965
1.18893 3.17259 11.4154
1.11981 3.08807 11.9688
1.13763 2.97515 11.5277
1.15207 3.16371 11.5555
1.16856 3.02065 11.2707
1.13147 3.00595 11.5925
1.17774 3.12336 11.7558
1.16721 3.00152 11.3745
1.15061 3.09349 11.6237
1.11903 3.06409 11.925
1.22172 3.11874 11.5621
1.15141 3.1156 11.9255
1.17023 3.13875 11.9308
1.14917 3.10457 11.8947
1.20934 3.12892 11.9631
1.16173 3.05431 11.9905
1.18201 3.1009 11.903
1.19711 3.28462 11.5738
1.12802 3.0893 11.9715
1.14921 3.1002 11.4381
1.14 2.95319 11.5549
1.13649 3.08725 11.8691
1.15353 3.00112 11.432
1.14341 3.176 12.0214
1.16714 3.05749 11.627
1.13129 3.14688 11.9194
1.15965 3.19083 12.0993
1.18131 3.17164 12.1559
1.20022 3.05488 11.5786
1.14584 3.09391 11.7384
1.13888 3.06988 11.6783
1.1285 3.09604 12.0871
1.15594 3.20597 11.4162
1.0813 3.12551 12.6747
1.20114 2.95059 11.6267
1.121 3.22401 12.2758
1.15412 3.08008 11.147
1.10521 2.90833 11.8365
1.16635 3.13621 11.7797
1.11832 3.11564 12.3932
1.17905 3.16873 11.9562
1.1546 3.25796 12.4798
1.1315 2.96145 11.3209
1.11285 3.0671 11.7183
1.15126 3.08047 11.6577
1.12597 3.0948 11.6807
1.10649 3.12142 11.9355
1.08636 3.01948 11.6255
1.13305 3.16431 12.4014
1.13064 3.03733 11.8775
1.14391 3.11257 12.078
1.15505 3.14088 11.8933
1.14003 3.11181 11.9885
1.13479 2.97231 11.9997
1.15044 3.22079 12.5223
1.14886 3.10912 12.0487
1.12266 3.12843 12.0555
1.1499 3.02516 11.3125
1.07806 3.04426 11.9599
1.12351 2.95179 11.3223
1.08233 3.04107 11.8399
1.12094 3.15287 12.398
1.14997 3.0782 12.3992
1.17056 3.3168 12.1083
1.16396 3.07437 11.6336
1.08504 3.06733 11.7135
1.07427 3.06897 11.9572
1.09508 2.90866 11.5574
1.13298 2.93903 12.0424
1.15176 3.24259 12.2414
1.13297 3.04454 11.7759
1.08897 3.17668 11.9352
1.11848 3.13026 12.0839
1.1114 3.02875 12.2673
1.14624 3.18198 12.3447
1.13515 3.16314 12.1941
1.13567 3.12872 12.2923
1.15496 3.28317 12.4128
1.11474 3.01155 12.0609
1.15207 3.17311 12.1721
1.12733 3.09261 11.9112
1.10235 3.21274 12.8153
1.19264 3.35733 12.7871
1.17571 3.14031 11.8799
1.0923 3.0747 12.3672
1.13511 3.1391 12.2682
1.10147 3.10405 12.6332
1.1342 3.17653 12.0184
1.1326 3.12214 12.3483
1.15278 3.17902 12.3259
1.12598 3.1778 12.4527
1.13369 3.09853 12.3393
1.13485 3.21009 12.6857
1.1735 3.14573 11.6977
1.07972 2.98146 12.2294
1.12702 3.22172 12.3656
1.14089 3.08473 12.1005
1.08967 3.05917 12.0409
1.12794 3.13981 12.4243
1.12199 3.03397 11.6841
1.10341 3.02569 11.8031
1.07388 3.06751 12.2438
1.12274 3.12555 12.5935
1.18196 3.15035 12.3665
1.11703 3.08527 12.0965
1.09134 3.08682 12.1677
1.12028 3.16083 12.7652
1.15458 3.20582 12.2353
1.08997 3.26484 12.7682
1.14194 3.18003 12.0112
1.10773 3.12013 12.937
1.15963 3.11944 11.7556
1.05066 2.92652 11.9487
1.10264 3.2245 12.5193
1.12092 3.15735 12.7865
1.15402 3.07175 12.1041
1.10769 3.18389 12.5325
1.13689 3.15806 11.9931
1.11586 3.05491 12.262
1.12553 3.11546 11.9299
1.09873 3.09724 12.6446
1.14946 3.02154 11.9177
1.11209 3.14071 12.2052
1.1163 3.08199 12.2055
1.13487 3.16818 12.14
1.09289 3.14336 12.7322
1.11174 3.20443 12.9713
1.16397 3.21308 12.4187
1.11735 3.27581 12.6342
1.1072 3.05609 12.334
1.11959 3.07241 11.8756
1.06787 3.0705 12.3429
1.08525 3.12972 12.0636
1.06983 2.97713 12.0209
1.06245 3.14214 12.8786
1.15091 3.06396 12.5078
1.11012 3.13511 12.4733
1.1443 3.28752 12.2696
1.10393 3.1248 12.441
1.12172 3.25963 12.8975
1.11765 3.09954 12.7903
1.14292 3.31807 13.0564
1.1378 3.01778 12.5232
1.13588 3.20689 12.2311
1.08516 3.16399 11.8887
1.05708 3.02881 12.7946
1.12361 3.07815 12.3236
1.12181 3.22396 12.6926
1.14901 3.29162 12.8536
1.13323 3.13327 12.7492
1.11803 3.10617 12.6762
1.10727 3.28247 12.6557
1.12616 3.03395 12.7244
1.14586 3.24033 12.0943
1.08044 3.05527 11.9223
1.07138 3.03127 12.6119
1.13808 3.30425 12.5747
1.11978 3.10978 12.6918
1.13316 3.138 12.4281
1.09512 3.08593 11.8558
1.05813 3.08782 12.2855
1.07086 3.03962 12.1762
1.09477 3.16467 12.712
1.12792 3.19299 12.9178
1.15067 3.17374 12.5382
1.11362 3.24194 12.6999
1.13195 3.21429 12.5447
1.09227 3.12171 12.5414
1.07382 3.17163 12.3955
1.11082 3.20625 12.6044
1.11929 3.03174 12.1377
1.05891 3.05648 12.1377
1.07989 2.9647 12.5189
1.09986 3.17665 12.4469
1.09993 3.0322 12.2985
1.12475 3.19763 11.9301
1.06091 2.8829 12.5267
1.09591 3.24204 12.4342
1.11398 3.15867 13.0815
1.15866 3.16645 12.1757
1.08543 3.13948 12.567
1.1159 3.15476 12.8027
1.13952 3.18036 12.1935
1.09603 3.13335 13.1817
1.12446 3.16398 12.1948
1.08237 3.12664 12.8972
1.12944 3.27003 13.0473
1.12851 3.1339 12.3581
1.08929 3.09761 12.2848
1.0634 3.12835 12.4978
1.09235 3.31531 12.9059
1.11806 3.18215 12.5527
1.05379 3.18028 12.5628
1.11702 3.12337 13.0032
1.1152 3.15822 12.8309
1.10875 3.18841 12.7491
1.10216 3.22622 12.9577
1.14506 3.32088 13.0461
1.13436 3.16279 12.4622
1.06573 3.3007 13.1252
1.1448 3.2209 12.7605
1.13712 3.2356 13.0971
1.16698 3.2281 13.32
1.15263 3.35795 13.3803
1.1687 3.39163 12.6977
1.10291 3.12323 12.4098
1.09287 3.22378 13.1171
1.11661 3.16964 13.1159
1.11246 3.2668 12.9379
1.14503 3.28367 13.1496
1.18472 3.33953 13.1082
1.14633 3.24376 13.0149
1.15015 3.26312 12.2994
1.07092 3.10823 12.9694
1.13445 3.2544 13.4021
1.18173 3.35599 13.4667
1.12946 3.37409 13.76
1.15394 3.46282 13.7653
1.14753 3.5842 14.1588
1.18671 3.5454 14.7005
1.22596 3.53998 14.3283
1.21913 3.77599 16.5901
1.3804 4.23471 16.5422
1.45983 3.74349 13.2383
1.1321 0 0