# pn-170911/RbIIA-27-AMC2-1280-1959.psd
# Power spectrum* (dif=0,1,2) (really just |FT|^2)
# NOTE: only the first half! (symmetric)
# weeks: 1280-1959
# 12 clock-days, 6 excluded
# PSD: 1441
15889.8 0.184976 0.00225279
613891 6.13315 0.00205983
2.00313e+06 41.205 0.00412755
225143 5.90764 0.00244896
116534 5.95483 0.00255634
36804.7 4.86349 0.00245654
42505.8 6.21981 0.00516418
36583.7 5.80382 0.00144528
15002.2 2.98186 0.00251071
6780.17 2.85395 0.00452004
10537.7 6.20635 0.00527078
14132 4.48863 0.00672041
8237.81 4.86412 0.00281163
3506.26 2.3838 0.00460038
8561.11 5.86508 0.00487361
4808.72 4.54999 0.00667601
4203.81 4.43958 0.00692122
5172.09 4.44037 0.0108663
2952.85 3.30976 0.0118806
7069.38 8.32524 0.0112495
1828.64 2.84945 0.00725044
2527.51 4.55187 0.00633891
4041.94 10.9461 0.0250953
2737.46 4.15555 0.0122369
2764.46 5.03162 0.0173779
1339.16 4.12107 0.0104382
1897.64 3.73606 0.00775334
1280.1 3.08023 0.0137009
1232.37 3.21477 0.0180924
1735.36 6.33323 0.0372748
1446.41 4.03594 0.0149471
1195.09 4.79073 0.028784
1335.91 3.06077 0.0156092
953.947 4.20033 0.0326414
1145.95 5.43919 0.0245119
545.563 1.75222 0.0135588
1132.35 3.17557 0.0185219
2103.36 9.11613 0.0524475
1363.59 7.81956 0.0425211
764.721 3.84543 0.0266186
917.717 4.03295 0.0400057
630.823 3.40288 0.0212847
1833.7 10.8064 0.0813549
1788.6 12.0198 0.125111
576.022 2.62274 0.0298368
521.818 3.43622 0.0309054
1289.41 11.9167 0.10661
316.945 3.32749 0.0443351
676.663 4.61812 0.0645213
625.363 5.25613 0.0767242
696.047 6.25502 0.0725649
614.295 7.3035 0.0835647
584.349 8.1627 0.101882
344.482 4.43304 0.0524713
889.72 11.8983 0.189176
651.46 7.44849 0.0856658
306.128 3.76019 0.0573093
794.701 8.88842 0.123324
425.357 5.54908 0.10284
321.358 3.22936 0.0602916
268.731 3.50936 0.0640925
575.824 10.4425 0.215888
486.215 6.18772 0.092554
463.31 5.49654 0.119714
545.368 10.209 0.171157
776.054 17.1623 0.363858
212.574 5.54168 0.129208
493.784 8.67024 0.213176
336.624 4.12622 0.10286
256.354 5.63041 0.113814
357.823 4.67014 0.124215
290.259 3.99194 0.0852182
146.679 1.8421 0.0492509
347.604 6.16406 0.133269
392.081 6.69651 0.153957
499.695 10.2437 0.256046
144.476 5.48504 0.141095
372.521 9.78345 0.299372
167.393 4.80999 0.157864
217.054 3.91848 0.138784
514.772 10.4632 0.300515
307.23 6.72267 0.242469
212.591 8.52791 0.242517
124.773 5.06141 0.173792
79.336 2.67948 0.106746
218.374 3.52768 0.122137
71.9773 2.11823 0.0770256
209.962 9.34027 0.31602
386.251 9.32703 0.297001
264.982 7.24646 0.287892
355.602 15.0224 0.532027
137.716 3.06258 0.119409
51.2718 3.57108 0.151897
204.119 5.93501 0.22794
181.753 4.85616 0.210094
153.507 8.45406 0.380698
132.832 2.41768 0.106056
276.225 8.32406 0.370215
72.4259 2.82894 0.138334
105.422 3.91692 0.19384
189.231 5.58415 0.30775
120.145 4.48969 0.215508
145.709 4.1881 0.236221
136.963 4.72237 0.259274
188.625 5.35089 0.243702
400.868 17.5981 0.81911
68.4035 3.28556 0.173392
161.465 8.20062 0.411411
115.074 3.40912 0.167295
116.716 4.25441 0.230107
314.35 15.4571 0.836604
156.623 6.82162 0.423266
253.338 15.04 0.873728
76.0185 5.64057 0.37971
181.177 7.92517 0.504629
75.4299 5.7211 0.35449
63.4365 1.98773 0.110562
188.534 7.56964 0.428285
180.418 9.18493 0.626475
89.4194 3.53882 0.246728
158.923 7.49441 0.473596
54.9502 4.74349 0.361701
125.634 4.47704 0.329625
120.976 5.13879 0.321347
245.222 14.6342 1.02363
50.9965 3.62917 0.287753
272.578 16.2717 1.28604
66.8978 4.25293 0.284174
67.0415 2.68843 0.199092
82.1584 4.73952 0.397213
68.3359 3.85855 0.323474
80.3661 5.23764 0.353575
140.103 11.1362 0.85274
88.5465 4.44304 0.360278
40.1164 1.84886 0.150305
79.9529 4.85595 0.419564
120.613 6.93476 0.622857
29.2521 2.84525 0.246173
68.6178 6.26472 0.535569
63.4563 5.63391 0.528193
72.2318 3.95412 0.342928
64.2716 6.53968 0.606118
71.0658 4.14001 0.425998
70.3198 5.2788 0.471383
52.0423 4.51498 0.473284
33.3255 2.05526 0.218607
111.109 7.88607 0.750154
87.5848 4.8268 0.512091
36.9372 2.3144 0.262353
69.5098 3.73083 0.351628
107.661 8.28462 0.879289
37.0822 2.58876 0.298563
55.6309 7.3258 0.785085
124.657 10.7594 1.21397
51.1639 3.57386 0.496077
69.8536 4.61205 0.546175
83.6474 6.87214 0.657567
61.0432 4.61826 0.564499
112.305 10.3452 1.09293
112.397 8.60254 1.08266
62.1456 5.5678 0.64505
53.8056 4.4456 0.548523
35.7996 4.16878 0.481437
42.584 5.54605 0.729608
34.3712 3.32231 0.371339
105.336 11.4427 1.45253
82.2046 12.6212 1.63833
43.8233 3.41398 0.444818
89.2704 6.77095 0.838252
22.4446 2.79891 0.418146
40.9814 3.33062 0.430744
22.8361 3.71967 0.56894
82.7809 6.09863 0.748451
71.0958 7.29675 1.01185
31.3248 3.01838 0.475153
31.7056 3.56776 0.501988
17.1175 1.90144 0.262822
34.5382 4.63725 0.717121
40.9002 3.4287 0.48278
26.4944 2.93755 0.459789
41.9173 8.43015 1.35566
43.9266 4.61507 0.729197
66.1452 9.699 1.62312
93.5319 9.72033 1.38882
100.562 11.2791 1.71235
38.2272 4.34106 0.713624
72.7337 10.6547 1.81558
26.5992 2.20207 0.418383
36.0742 3.34221 0.551037
103.494 11.7879 1.92203
53.1124 7.00447 1.4336
32.3698 5.25261 0.692276
46.125 6.85211 1.32631
32.4634 4.66586 0.752022
67.4405 9.63577 1.54166
22.1638 3.17025 0.581147
37.8461 5.25511 0.948182
45.1685 6.62523 1.21999
21.9449 2.02699 0.39959
41.4875 4.20537 0.896404
24.276 5.0499 0.82383
25.4792 3.07239 0.539984
22.1532 3.06479 0.596809
42.0885 5.30149 0.948801
48.3187 6.66956 1.31482
26.357 3.17495 0.669505
23.3737 2.92657 0.587064
26.1296 2.95311 0.639188
99.076 17.3723 3.44775
23.1671 2.28332 0.422063
17.394 3.94067 0.815166
24.5961 2.83895 0.614979
26.6534 2.73146 0.541275
52.3664 7.9429 1.87474
31.9799 4.52732 0.903386
38.3735 7.80808 1.64477
26.0445 3.15137 0.687647
18.5823 2.46244 0.633928
14.2543 3.41521 0.656972
15.7334 3.2191 0.858708
54.8156 7.26226 1.58514
23.6612 4.81618 1.11788
20.5627 5.01955 1.01281
31.8097 10.6847 2.57416
51.7324 7.76522 1.77555
16.9858 2.40883 0.489496
26.9998 7.77358 1.82563
28.3701 4.59138 1.19688
13.7521 5.44771 1.55717
53.8354 8.28808 1.87075
23.1642 4.2531 0.919011
17.7009 4.25995 1.16596
31.8592 5.04988 1.21198
16.3998 2.39256 0.486834
20.4051 3.22826 0.902343
18.4586 4.25306 1.02776
24.2286 4.79868 1.11922
39.7916 7.96733 2.28765
20.7333 5.35746 1.30208
22.1132 5.63302 1.38875
26.5076 7.51175 2.04027
23.8104 5.47294 1.68343
39.6908 8.16751 2.08763
17.4583 3.17069 0.797604
16.4457 5.21302 1.63946
22.5118 4.83659 1.27806
25.6424 7.71844 2.19177
14.565 5.63096 2.04573
25.5689 3.75349 0.95546
35.8639 6.57939 1.60422
31.4938 4.87294 1.1925
28.9135 6.58934 1.9097
29.4893 11.5138 4.00963
35.374 5.79859 1.60796
65.994 13.5127 3.63434
25.8435 7.41284 2.59598
33.0364 8.54435 2.4166
28.1476 8.27171 2.70053
43.7712 6.36538 1.71245
26.2304 5.03126 1.40487
20.1095 3.01885 0.858879
15.2833 3.59329 1.33492
66.5743 15.4498 4.77895
21.1803 4.11062 1.43601
29.9157 8.19431 2.89987
9.56636 2.85645 0.74932
11.6491 3.97609 1.3779
20.9793 4.84387 1.50048
16.9195 3.21664 1.12843
20.7849 6.50011 2.17223
28.9655 6.69444 2.2481
28.817 6.85153 2.31196
13.0696 3.47965 1.27853
17.7277 5.66762 1.83837
13.7244 3.08638 1.13927
26.7835 9.53718 3.31672
10.483 2.91762 1.28537
28.6712 5.77166 1.99909
7.90701 1.83464 0.498448
22.4911 5.2125 1.90373
7.40602 1.75344 0.549749
9.0945 5.20144 2.22082
33.8073 7.31567 2.49131
26.5038 6.73059 2.32825
24.0001 11.0865 4.41774
12.5786 2.76288 1.08249
40.9513 9.28153 3.29012
46.3316 16.0185 6.1332
35.3107 10.2988 3.91218
24.8386 8.11045 2.95255
14.7415 3.7215 1.28846
10.1774 4.66622 2.21513
38.7395 12.1386 4.42596
12.3161 4.08528 1.73335
14.0639 3.53934 1.44014
20.401 5.53463 2.17761
10.56 3.7724 1.50541
13.7854 3.22978 1.17741
19.1226 5.97278 2.49458
11.4398 3.8525 1.3568
20.1234 5.00449 2.17198
11.7361 4.16717 1.7492
18.4577 7.59214 4.09557
37.5732 9.82899 3.4362
11.921 3.29636 1.26256
13.1704 4.55013 2.39677
30.5993 12.3223 5.20907
19.8263 5.62333 2.05749
21.0277 5.53384 2.27334
10.6289 1.8951 1.05984
53.1973 20.6174 9.77305
12.532 4.46194 1.57936
11.9521 5.24432 2.0758
8.22602 1.63488 0.76357
9.54956 2.83772 1.29089
9.75667 3.73315 1.61832
12.3981 2.88504 1.54768
9.92752 2.89472 1.50482
5.35076 2.47896 1.05344
15.4051 4.80704 1.73975
7.63285 3.80538 2.08539
16.2899 4.06045 1.77905
16.0098 5.76275 3.25226
22.4969 7.99695 2.92656
5.60731 3.18214 1.42511
12.2688 4.47192 2.02804
10.0916 6.99775 4.23913
30.6843 11.9523 5.31996
9.13763 2.31116 1.22651
24.8636 11.7901 5.60855
18.7908 6.09481 3.21383
15.756 8.73673 5.06553
18.0421 7.72003 3.65737
10.9177 3.79666 2.47217
21.9713 5.21287 1.86612
8.53101 2.7129 1.58988
30.9804 10.3708 3.98496
25.66 12.5704 7.5495
11.2895 5.40242 2.14538
8.76102 4.67328 3.00896
14.7897 3.60225 1.50129
26.2042 8.71681 3.86682
26.7039 11.555 6.35666
5.92176 2.91785 1.73645
10.6734 3.24936 1.96722
8.39404 3.06928 1.45913
22.3245 6.53558 2.68877
27.497 10.5805 5.82089
20.1621 9.38268 6.14107
8.14931 3.003 2.47685
13.2953 7.11382 3.83957
8.87721 3.08338 2.0457
5.7018 2.69633 1.7367
9.6626 5.4346 2.89608
8.88544 3.23688 2.15111
9.66667 3.70595 2.26648
7.79262 5.33696 3.55014
12.0301 5.48328 2.79204
15.3229 4.93236 2.9304
9.61965 5.19112 3.68073
6.5979 3.21836 1.55349
11.9953 8.13461 4.26257
9.75615 4.27724 2.3726
6.40533 2.58801 1.98541
5.96061 3.58575 2.32492
10.0886 6.43464 3.03605
10.9853 6.4034 3.70549
10.3251 4.68818 2.68366
4.69616 3.3641 2.49685
13.2662 4.46712 2.3822
21.0087 9.77704 4.949
21.3289 15.1567 11.6693
17.6036 7.05184 3.17171
11.3512 5.24554 3.68563
8.91294 5.39537 3.63875
8.34217 4.70352 2.30382
10.4642 4.92014 3.49532
8.02327 4.41645 2.57308
7.41259 4.11827 2.4357
7.51073 4.80344 2.87135
18.4604 8.82358 5.88312
3.26954 2.25528 1.53762
8.66985 3.52286 2.04287
9.54649 8.21079 7.25807
17.0944 11.2892 6.38617
10.4153 3.7609 2.2441
22.9583 12.278 8.34028
4.91317 2.89503 2.4572
12.1849 7.19712 3.9406
6.15621 3.42045 2.41042
5.33212 3.65299 3.49274
17.6823 7.42199 4.0007
11.906 5.532 3.62751
17.3815 8.96307 6.28373
6.65995 3.89624 4.1082
8.29183 3.60357 2.22149
13.2758 10.2886 6.97555
11.5283 5.37737 4.25182
8.98247 5.30446 3.08901
3.31767 1.80139 2.10998
28.4268 15.6708 10.6708
7.79027 3.88641 2.44718
4.25861 3.50655 3.23817
5.38455 3.93562 3.44036
16.2043 8.72801 6.44181
12.3747 8.36426 4.61996
4.22103 2.52348 1.82039
9.66649 7.82732 5.75607
5.92058 3.62258 3.3535
10.8656 3.6027 2.09961
9.12134 5.20681 4.25591
8.01471 5.23625 3.73003
5.56139 3.39101 2.81255
11.6489 5.14694 3.61609
7.80164 4.9282 3.8112
12.371 6.2452 5.3453
6.14984 3.74477 3.35514
6.09507 2.84249 2.26584
6.10794 4.18492 2.69532
6.70475 4.55174 3.7529
7.74497 3.50322 3.13203
4.91623 2.41143 2.17866
4.63354 2.81521 1.92348
10.8473 6.05094 4.64848
5.12839 2.76376 1.9793
2.71405 1.78363 1.78512
13.6188 9.29453 7.20594
5.42105 2.39816 2.43015
9.0804 4.85155 3.83383
6.98186 5.23924 3.81538
4.58427 2.34128 2.28097
6.50156 4.47477 3.71712
5.9196 3.33145 3.34336
7.05972 5.90958 3.99538
9.12272 5.38879 4.60177
18.0857 12.2922 11.0424
7.0872 2.95134 1.87791
9.50654 7.17429 6.0114
11.9657 7.00463 6.30638
4.23557 2.35668 2.48341
10.1944 6.77574 5.78111
6.09805 6.82302 5.80814
8.7009 5.79833 6.0819
4.47682 4.36068 5.26447
8.21446 6.29716 6.08756
8.11801 4.6916 2.69019
10.1313 8.36208 8.43671
6.0384 5.04925 3.69227
4.04356 3.56878 3.71603
8.66388 6.78069 4.7642
7.71144 5.98556 4.12418
4.69136 4.9073 4.11098
5.55672 4.22039 3.5764
4.60707 2.46199 2.39106
6.81192 7.28788 6.88681
5.5378 4.77088 4.85414
9.92332 9.2289 7.1146
9.49869 8.39112 7.98873
8.47506 3.37948 2.63883
8.93527 10.2281 10.5168
8.29872 5.51116 2.97573
6.4239 8.48168 9.1759
8.45339 3.18925 2.8858
13.8819 10.8722 11.0726
5.37068 3.73423 2.6829
3.36078 3.97358 3.45625
3.57258 3.12717 3.27547
6.8953 8.10016 11.5076
14.9821 6.1282 3.59286
11.9197 8.74176 5.61234
8.02965 4.52196 4.35524
7.01217 6.94629 5.6246
6.44549 4.81004 4.42593
6.1305 7.24459 8.59414
5.23735 4.41691 3.22448
5.42889 5.39425 5.69449
3.3448 3.47715 3.54778
4.75902 2.81332 3.22566
4.99066 3.91501 3.02454
5.32235 4.27547 4.10744
7.1818 7.2098 6.56362
7.02533 5.84125 5.76242
4.94869 5.81741 6.42687
6.59432 3.71481 3.2604
3.45558 3.90589 4.90608
8.74434 6.91869 5.3941
6.07922 7.38688 7.27364
4.56233 4.28594 5.04624
9.02556 8.70406 11.3284
6.1592 3.66469 3.10482
6.60793 7.64694 7.00497
5.20641 5.66095 7.19203
10.1759 7.14269 6.86652
4.37616 3.50027 4.18736
5.313 3.3092 3.93183
5.02622 6.31175 5.5337
10.7235 11.5086 11.1775
4.01173 3.39583 4.45007
5.85093 3.78929 3.61824
4.79567 3.09414 3.47539
3.24186 2.87262 3.77976
6.53448 4.1131 4.79864
4.82004 4.16549 4.20372
3.08835 1.56551 1.31207
6.1729 6.37133 7.75578
4.65697 6.28835 5.63136
3.89701 1.98657 2.33402
3.73304 7.40218 8.39088
5.20322 2.58968 2.77364
5.02551 6.46161 7.14138
3.45285 7.0552 13.5932
18.5676 11.4115 8.88568
8.86209 7.22636 7.70561
3.2499 3.65893 3.14361
5.16565 4.61971 5.62896
6.52911 6.55429 7.21637
3.95465 6.37502 10.4045
12.5168 6.71857 5.29752
6.55191 6.1702 5.7674
9.16242 9.40487 10.4038
7.40062 6.45492 7.62502
5.28124 8.12261 14.6073
12.4293 11.6675 10.0402
7.72927 5.76443 5.73528
7.06056 6.35474 8.68347
3.01257 3.70696 3.98032
6.16463 9.6941 12.2333
11.6224 9.02914 11.1808
7.79121 10.3194 10.0163
4.86997 3.618 4.98535
5.11375 4.98347 5.36553
3.90933 4.83667 5.75886
4.24747 4.01695 6.10585
7.72017 6.0599 5.77197
4.44339 3.38117 4.64265
5.08981 4.11111 6.03782
4.71119 2.74794 4.56879
5.73904 4.12775 4.03938
9.60352 8.38913 11.4991
6.30184 6.88874 7.04511
5.96884 4.99453 5.75792
3.73817 7.79574 12.7866
11.8092 9.36788 8.32214
3.55838 4.48608 7.81342
13.6749 11.9743 13.762
3.62115 4.3628 5.8739
6.26806 4.95606 6.19457
6.70177 5.64181 7.5354
13.3733 12.2953 15.7187
3.87065 4.57238 6.01471
7.17881 4.85658 3.52249
5.02251 5.51344 6.79859
3.2608 4.36854 6.64904
3.84452 3.77258 4.25348
4.5553 4.25386 7.22436
7.54941 7.47577 8.83636
10.394 11.7011 17.3741
8.46511 7.80413 7.31752
5.07195 4.68066 6.16442
3.4294 4.89046 9.65792
4.85558 6.15569 5.91772
1.06459 1.77064 3.76387
6.17282 4.65109 5.31506
5.54574 5.84643 9.37358
6.87792 7.46107 8.87912
5.73926 7.09946 7.61768
4.1233 5.38106 9.99388
3.67117 4.39454 5.59716
4.20522 5.19633 6.22499
4.29769 11.1401 20.5246
13.8064 10.2543 8.95356
5.74391 6.08595 8.27096
3.99844 3.61663 5.0876
4.76141 5.25153 7.64811
6.3355 5.63697 6.59616
3.24426 2.85325 3.62877
4.77285 4.39483 6.74821
2.97152 3.02059 5.03926
4.67918 9.22047 18.3544
14.9273 15.3557 15.6139
6.07904 5.8989 6.49442
2.28479 3.21905 6.5052
6.02921 6.44911 10.5905
7.39633 6.44912 5.54487
4.02322 3.51785 4.38457
7.74289 10.0481 14.5401
3.90248 4.32987 6.77404
4.62959 3.70844 4.73713
3.45471 5.5563 7.43994
5.69866 5.86137 8.70713
3.48357 4.01302 6.28793
3.53109 3.61136 4.4123
1.94407 2.47918 4.23107
3.1758 4.82464 6.76982
4.93784 4.90066 6.90384
3.39853 4.12512 6.75546
2.20738 3.41841 5.1727
5.37925 6.59292 9.23318
2.09221 1.78601 3.5116
3.17182 3.11007 4.53046
2.83614 2.22638 3.34543
3.54713 4.37848 7.13917
6.27273 6.91762 11.093
2.65491 3.20156 5.62708
3.97966 4.26277 6.41002
11.3875 14.4171 16.537
3.3404 4.43827 7.95333
2.00737 6.89295 20.0455
9.31233 5.85743 5.30372
5.83774 9.12436 9.7696
4.53443 6.55112 9.97296
3.27718 3.1656 4.68068
4.1383 4.9427 10.4717
3.92561 3.81486 6.05027
3.23307 3.32835 3.9886
3.54492 5.46938 6.94253
1.86305 2.95095 3.84795
2.70109 5.2333 9.20065
4.01257 6.52656 9.63027
4.01008 4.40334 8.93146
4.06978 3.48442 3.58171
2.45125 1.80861 3.04436
2.96712 4.31424 5.69238
3.68982 3.99809 5.72186
2.17772 2.43868 3.71345
2.44863 3.89399 7.24852
3.77114 3.90964 4.65677
4.01546 6.73393 9.28131
3.51007 5.5276 8.15652
2.32604 2.91302 6.14829
2.05266 4.23333 8.32501
4.05913 4.0203 5.71636
3.11623 3.57223 4.76171
3.58153 4.31201 8.80127
4.4128 7.80945 10.9752
1.48864 2.20508 6.9759
5.45699 6.34122 12.4781
6.3073 6.17247 13.7339
9.47965 10.8961 9.88396
4.589 7.68943 13.6805
7.56699 9.93636 14.6829
1.70533 2.69784 5.84792
4.59081 7.46609 9.73372
3.1705 3.65369 7.06695
4.04237 5.06756 9.26063
4.98821 5.2673 7.82421
5.53969 6.04373 10.419
3.17889 5.459 9.25641
2.5895 4.52977 8.12582
5.22946 4.26421 7.00969
3.0019 2.99219 6.75827
3.36449 5.21995 7.18342
3.38703 4.30058 6.4144
2.34354 2.16025 5.47779
2.08972 3.87429 7.44219
2.62411 4.19578 6.80267
5.62735 11.8778 14.4306
1.74795 5.1229 12.6556
3.63394 2.97898 6.65809
4.07772 3.41266 7.64994
2.81345 3.43123 8.22959
7.94646 8.41041 9.54205
2.06921 2.66176 6.38949
3.74191 3.63728 6.10417
4.08023 7.2298 10.9078
3.84557 5.65915 10.9568
3.90014 4.08926 5.14186
2.03798 2.35531 4.82298
3.20315 7.51639 14.228
2.76605 4.0773 9.08418
3.57325 2.43846 4.81782
2.77679 1.5347 5.01174
7.53181 7.86511 10.8213
3.8664 4.12674 6.02204
3.95087 4.74375 9.0158
3.55083 5.30068 12.002
3.20233 4.50531 6.86653
2.66469 3.38179 5.07406
3.26287 5.34563 8.28117
5.10689 8.32534 12.6833
2.75651 3.29403 7.12352
2.76021 8.20038 19.4446
4.15959 3.25021 3.76508
2.52095 4.59365 7.7582
3.69865 4.57949 7.18987
3.8365 5.22829 11.1047
4.30328 5.524 11.5101
5.54267 8.16395 11.2389
6.04611 10.7469 21.6587
2.41937 4.08949 11.2138
2.57778 2.3753 2.41414
1.26577 2.14965 4.73726
3.12675 7.26661 10.4405
4.36684 8.84104 14.6933
4.1859 6.20213 13.5456
3.99106 5.96455 13.6784
2.86779 3.6203 4.76223
2.7216 4.21785 9.01559
2.34457 3.19765 6.36557
3.24398 3.26177 6.43097
2.43403 2.28417 4.72187
1.75133 2.51246 6.61862
3.51549 4.19672 8.16519
4.10495 9.67645 20.0919
4.99982 4.38322 6.50468
2.85042 5.77143 11.116
3.59654 5.02798 11.7106
3.39028 3.17237 7.69493
6.05064 6.72188 8.74778
1.90984 3.13408 8.35625
3.55437 7.29503 11.8299
2.52678 2.52794 5.62247
2.42055 3.98196 9.84759
3.80795 4.10751 9.62878
3.26452 3.92151 7.08704
3.4588 9.68302 21.0064
5.19675 5.05199 8.77413
3.93226 6.41867 12.4826
3.87089 3.16092 5.53554
5.85391 7.33722 12.5708
2.39108 5.19807 10.1554
3.45022 6.88577 14.7446
2.50478 4.07205 8.88448
3.11267 2.32624 2.38693
2.0046 2.37697 5.46551
2.31931 3.29553 8.69732
6.98638 10.5303 16.7391
3.96071 10.7188 32.9734
4.8414 6.06916 6.81159
2.45503 5.72241 10.5641
2.92064 5.78284 7.37467
2.18346 6.47312 17.0583
5.19892 5.82395 9.10129
2.10088 3.6195 11.3843
4.87223 4.61217 5.18369
2.52861 4.35124 10.9946
2.01131 4.34126 8.24675
3.31587 6.11484 15.3092
1.42365 2.62582 6.06569
2.2347 3.24295 8.25572
3.16668 4.60845 8.43983
2.68025 4.66209 7.88088
2.2065 6.24901 16.8275
6.72522 7.46471 10.5015
3.02227 5.49753 11.3131
1.42994 2.854 11.8613
2.85456 4.24586 5.30473
2.69906 4.31883 9.46591
2.67701 3.44178 7.57457
3.19514 3.22255 6.431
2.00199 2.85035 6.76446
4.7086 8.54757 12.1598
2.60808 6.27012 17.2859
2.10793 4.50602 8.69755
2.59978 4.6534 18.0376
3.89591 6.14388 10.5575
3.345 6.62556 9.74144
1.7729 3.9399 9.79473
2.8497 3.10624 6.4401
1.88252 2.84876 6.15689
1.61686 2.68664 6.77863
1.80842 3.52332 8.57466
1.7468 3.75929 9.57271
3.22904 6.99462 11.6791
2.47503 5.37038 10.6889
1.70437 3.7369 22.0426
9.45605 11.5874 14.7406
3.22324 6.24684 14.5275
2.69199 7.39477 18.4156
4.05969 5.37704 8.14235
2.39808 10.3258 27.0361
4.82081 2.9602 9.13652
4.66329 6.43687 11.1924
3.76822 5.80313 13.1653
2.03035 5.60673 16.3687
4.15756 5.41774 9.56113
1.98429 2.95477 7.8832
4.30585 7.16319 12.5201
4.70437 11.441 20.1109
2.26546 6.89396 20.7113
2.90274 3.65562 9.79629
5.51868 10.1862 24.1274
3.90374 4.10956 6.0024
3.18287 6.33915 14.2274
2.35246 3.78732 10.3416
2.41926 4.75972 10.2107
3.50514 6.14007 16.5025
3.56934 7.64457 9.24615
1.54795 5.84617 12.5995
1.89688 2.70253 6.10315
0.747524 3.17663 6.95121
1.77625 4.76778 9.81904
1.68184 2.6507 7.11034
1.68008 2.15859 6.59442
2.67582 3.39726 8.61983
2.05171 3.60358 7.627
1.59227 4.50325 13.9706
3.42904 4.37925 10.5718
2.28927 4.65266 13.5833
4.55906 10.5069 24.0132
3.09306 2.56605 6.87218
2.66861 2.82999 5.57855
1.59457 3.31425 12.2721
2.35485 2.49676 6.10733
2.93756 2.95503 9.62079
3.25197 5.71079 11.4537
2.75245 2.20889 7.2948
2.70151 5.29998 19.5823
8.06645 11.1542 13.0253
2.34539 6.07455 14.4457
2.09526 3.19771 6.90356
1.81402 4.76893 11.0016
1.40666 3.03924 6.32267
2.16724 4.49696 13.0698
3.11799 3.5693 9.40914
3.82457 7.3938 15.0574
2.55425 4.14504 10.392
2.63172 4.49287 11.5896
1.63293 4.54213 13.3221
3.11495 8.88237 25.5242
5.05033 4.84302 7.37308
5.09202 10.1984 20.6604
1.68677 3.05598 9.14332
2.07198 4.20714 11.0605
2.44233 3.30514 11.8135
2.82662 5.60211 9.59973
2.25698 5.44598 15.6704
2.99396 2.81466 6.94773
2.1543 2.60337 5.57012
1.89786 4.71879 15.0494
4.15536 5.70072 9.22916
2.94769 6.03382 17.4671
3.11754 4.17274 8.01885
2.59842 5.15132 14.7225
2.35811 4.10263 12.3431
1.68534 5.32547 14.7288
3.98506 7.70945 11.4051
1.55496 5.5428 12.3862
2.63544 6.29664 18.5106
3.64626 6.73195 16.0479
2.89628 5.05832 15.1606
1.6705 4.74268 7.90144
1.96164 3.83462 10.7505
1.32975 2.72985 10.3891
1.76372 3.34189 11.0884
2.89324 2.98308 6.25144
2.38009 3.15374 6.29339
1.95329 7.09735 24.3877
4.61337 6.55827 18.0404
3.17277 8.95442 20.8737
4.24726 5.6704 8.93327
1.70826 6.14301 18.5341
2.65404 3.93634 11.1026
3.71627 6.89598 13.8081
1.906 3.46412 12.0055
4.5163 9.18706 26.4195
4.01535 8.35033 18.5479
2.37247 3.17054 9.22167
3.50465 8.26675 23.3556
1.72159 2.79163 7.94068
2.19392 5.01637 10.6254
1.85029 3.91604 12.7474
3.18216 6.24285 15.213
1.25489 3.90363 11.9841
2.51982 6.0479 8.55371
1.53434 3.51762 9.70128
3.32007 7.46496 18.4247
1.62265 5.60712 16.132
3.00892 7.17784 25.9703
3.59599 4.7366 7.85763
2.3597 7.13837 15.4378
2.97228 4.3048 11.7059
2.32873 5.1896 13.5819
2.06848 2.90042 8.48101
2.99966 4.23123 8.3561
1.05165 2.7107 13.399
3.00488 5.32355 10.2342
1.09339 2.58891 6.47092
2.09679 5.58184 13.8049
1.52239 1.81089 9.30256
1.89447 2.45447 7.36691
2.57482 7.94264 18.1589
2.89537 3.77623 10.4301
2.95237 10.172 30.4214
4.60154 7.55089 20.1866
3.25993 9.022 19.6559
3.45135 4.25987 8.20455
1.53916 4.80683 12.7395
1.65731 3.22476 7.49824
1.10793 3.24608 12.9052
2.8468 4.49321 10.6624
1.78433 5.91076 19.1458
2.13583 2.37544 7.51709
2.56039 6.34711 17.7897
2.26457 4.90896 10.505
1.94049 4.08046 11.0903
2.70888 11.4807 37.9741
3.46792 1.39475 11.1454
2.84967 3.22282 11.6667
2.67699 5.78661 12.9184
2.10428 4.2978 10.7953
2.23569 4.14389 13.5248
3.16456 4.42699 12.6438
2.84673 5.62094 14.3614
2.26878 3.73755 8.29109
2.39785 3.14176 9.98366
2.68549 5.43883 10.2675
1.15598 2.05936 5.95807
1.01086 3.37032 12.1546
3.30621 6.54413 15.8298
1.54366 4.97893 14.3742
1.98688 5.17079 16.6032
2.0478 4.42968 17.7278
4.00696 5.07787 9.71713
2.04387 5.26249 11.5724
1.90365 4.36159 14.8675
2.77188 4.52997 6.20135
1.22858 4.94523 18.9889
2.86786 3.97469 8.33422
0.98416 2.43609 9.91199
1.88038 4.28464 12.0729
1.82977 3.62592 13.4683
3.70414 7.60724 18.3935
1.83503 2.33401 6.43057
2.0612 5.01582 15.4862
1.74424 3.19347 9.67847
2.4712 6.48936 20.5869
3.66847 5.21895 9.71238
1.38195 4.40835 16.047
2.49422 2.98929 9.54939
2.21504 2.34583 5.43475
1.54563 3.45736 10.801
1.63627 3.36367 10.526
1.73131 2.06937 6.57286
1.86228 3.59333 9.24248
2.55081 4.75635 12.1133
1.28561 2.70743 11.0323
2.97956 4.35866 11.3827
1.77819 3.38058 7.82891
1.77115 5.93151 25.8268
4.48429 6.69737 11.5558
1.68257 4.21139 16.4766
1.54122 3.60821 12.617
2.29447 5.28878 10.3408
2.10599 4.66027 7.84887
0.864862 3.27251 11.1704
1.66502 3.03379 9.31696
1.40667 3.27222 10.0615
1.61607 3.48426 9.9223
1.72092 2.41063 9.42392
1.95789 3.93306 11.8446
1.9244 3.44717 11.0236
2.08009 4.79434 11.5385
1.40945 2.9053 11.6233
2.22428 7.02955 16.0522
1.59227 2.86865 11.6592
1.28076 3.292 8.17981
1.28037 3.68052 10.5021
1.48389 3.09883 11.4178
1.67888 3.50703 8.48097
2.04037 4.71373 14.3271
1.97553 3.90276 16.9779
2.4223 3.93146 7.17851
1.58857 3.12048 10.1736
1.82252 5.23673 16.9253
1.45585 3.51064 12.714
2.05099 5.06304 14.3388
2.41616 3.61076 10.9778
2.00366 4.9726 11.4706
2.94714 8.71459 28.0401
1.56316 2.73266 17.2181
3.25021 8.2835 15.1779
2.03675 7.15867 29.0854
3.64479 6.13506 9.37712
1.00552 2.27602 11.6425
2.06898 5.48037 13.8132
1.77529 5.57788 16.5963
1.38463 2.49009 15.4281
3.11304 7.31233 18.8514
1.63797 5.87029 20.1305
2.09998 3.84502 12.2791
1.9728 4.28699 16.7128
2.68856 3.55836 9.68471
1.7777 6.1168 18.0471
1.95648 3.16823 8.01798
2.28857 6.34435 19.2615
2.03148 5.1393 14.4442
2.08309 5.40479 10.3202
0.989224 2.27071 10.0249
0.92542 2.38932 7.71362
1.31121 4.07629 13.1704
2.34118 7.41227 21.9794
2.30664 3.37968 9.57752
1.30004 5.99796 27.0112
3.15933 6.03675 12.8444
1.67321 3.29823 14.3874
2.39585 5.08109 16.9719
2.06486 5.84109 21.1099
2.74154 2.15908 10.4583
3.09233 7.24489 14.4686
1.98096 3.39281 9.45898
1.31045 2.10369 5.01636
1.13848 3.36211 14.818
1.81471 4.16684 10.689
1.3713 3.54745 13.5912
1.98158 6.6005 17.2133
1.51163 3.61609 14.3305
2.36265 4.4897 23.0983
3.62519 6.59927 12.0567
1.49283 3.95337 12.2792
1.86697 2.75353 6.11999
1.56857 5.93757 30.7005
2.98931 5.80561 15.3366
2.82872 5.46267 15.2472
2.24364 4.2062 10.0817
3.18381 10.7908 28.5134
2.07356 3.65521 14.0043
1.57243 5.05953 15.9425
0.79011 2.84811 9.01081
1.12717 2.817 17.0036
2.01145 3.13044 11.5131
1.69728 2.7358 7.56293
1.93735 4.79147 21.6797
1.66977 6.1605 21.8211
2.48405 3.47401 9.44886
1.05176 2.39229 11.3929
2.29766 5.38843 6.59872
1.52369 5.76551 17.2023
2.0278 2.5977 6.4495
1.45705 4.09882 7.71569
1.15738 4.56305 16.9305
2.07117 2.82735 9.28492
1.40332 3.33625 14.0464
2.49968 5.57259 12.6166
0.965681 2.76806 10.3795
2.39529 10.3068 29.223
3.00247 5.5654 15.0613
1.37137 4.06542 11.4563
2.23117 7.42187 21.0872
1.60064 3.76046 18.1447
1.59093 4.024 8.79505
1.13124 5.15373 26.2325
2.83772 5.58045 15.1326
2.13093 4.02139 10.5524
1.21026 4.31329 22.0051
2.26142 3.58257 10.2749
1.42449 4.73588 22.6813
2.56316 6.79635 20.4376
2.46892 5.09116 17.3786
1.68302 2.77945 10.9634
1.66569 4.11953 8.28308
1.48482 5.15764 12.9815
1.3536 3.49436 12.1509
0.83007 3.51318 14.7906
2.17142 5.19439 22.1821
2.18645 6.33076 18.8971
2.55832 5.42318 14.691
1.47462 4.22264 17.0921
1.70616 3.84046 15.7732
2.27027 4.87802 17.7895
2.00389 6.51225 20.5478
2.21808 6.50638 15.0178
0.803867 3.30653 15.35
2.0001 4.40767 10.4046
1.58917 2.33924 5.24314
0.890686 5.18715 13.5271
1.52687 3.22999 14.8343
1.5367 3.12109 14.875
1.28817 3.87474 15.5345
2.53213 5.98961 21.9906
2.12772 4.41911 13.2451
1.45566 4.84061 13.1822
1.57162 1.77486 11.8353
1.91056 5.07381 15.5948
2.22241 4.76176 15.856
1.64282 3.44072 12.803
1.80886 5.49349 16.6843
1.10036 3.06317 10.4848
1.37437 5.84398 24.3376
2.1788 5.3474 14.9864
1.28613 3.83012 12.2139
2.10644 8.06009 20.2939
1.54411 2.81617 13.4741
1.58903 5.18906 25.1764
3.62742 9.75527 29.0347
1.64394 3.07293 14.2698
1.38466 2.20774 9.00949
1.47121 5.77065 21.6395
2.05686 6.05052 13.7135
1.25421 3.818 15.5286
1.43305 3.35231 10.8369
1.58936 3.69691 13.6724
1.90094 4.2086 19.7586
1.91305 3.28595 12.3251
1.59305 7.62641 19.7355
2.16739 4.42435 10.0509
1.14377 3.34351 14.2863
1.58312 2.12525 7.74099
1.07177 5.93166 20.0171
1.76676 4.45816 27.0906
3.69053 8.08042 20.6587
1.78882 3.90393 13.568
1.76814 3.17498 13.9606
1.99779 4.8049 12.5781
1.29226 4.1561 11.5887
1.42061 2.48255 12.2846
2.12141 6.00376 13.6045
1.39814 4.90419 20.2973
1.66721 4.7929 9.59222
0.706417 4.22968 15.0732
1.60808 3.91126 16.5845
1.88909 3.90236 15.4108
1.43063 4.997 20.0811
1.59345 1.69136 14.3828
1.69685 6.18875 18.3853
2.58729 4.97543 12.1181
1.59042 5.15307 18.2804
1.64651 4.2871 12.3532
1.75543 3.08009 17.3505
2.0456 4.97195 15.6933
1.92248 5.08408 18.2227
1.94034 5.35615 16.9184
1.4691 4.27298 18.2285
1.5982 4.51235 12.3521
1.73018 4.83331 12.6919
1.36322 4.44462 14.654
1.86069 3.58809 8.60351
0.977617 2.91174 15.0411
2.21972 6.15122 19.0539
1.67939 2.37393 9.78338
1.07476 2.26987 9.78197
1.64499 5.56463 15.5912
1.45595 5.21115 19.3002
1.50893 3.13922 14.1387
1.33414 5.19152 23.2333
2.07478 6.41209 15.1669
1.52148 5.25337 22.8851
1.39402 2.85271 12.3891
1.10502 2.93412 12.375
1.39035 3.19994 16.5286
1.61984 4.51511 21.2523
1.64323 3.92679 17.4007
2.44502 7.50071 19.2144
1.9355 5.80527 20.7166
1.88768 4.21608 13.0396
1.5158 8.68373 25.8709
2.83729 7.10924 27.2823
2.60349 2.32092 14.66
2.08068 4.14226 16.4618
2.18198 6.77991 18.8364
1.86428 4.62952 10.8547
1.5373 5.21798 25.6219
2.003 5.2416 13.3935
1.24197 2.64415 11.3911
0.942992 4.84387 23.647
1.57948 1.97852 16.837
1.37491 4.49633 18.7512
2.33598 5.96868 19.5258
2.33269 6.74306 12.8375
1.57753 8.94685 21.9954
1.55713 4.10738 15.9229
1.95624 3.8 15.7896
1.60228 4.8222 12.5054
1.4802 2.67024 7.85629
1.48745 5.34948 18.3685
1.91211 3.34782 19.5211
2.14768 5.46764 21.3082
2.30464 3.71827 10.9088
1.79242 3.92795 12.1334
1.81418 5.98155 19.3964
1.23729 5.50582 14.3291
1.30743 4.90817 14.8536
1.1178 4.00529 22.371
1.802 2.62004 15.0561
1.90181 3.57001 13.3756
1.8705 5.75159 19.5641
2.06032 4.16599 16.4711
1.84589 3.37786 15.7989
2.25408 5.6708 14.4502
1.64689 6.7898 15.3941
1.03739 3.0126 22.6231
1.42155 3.62413 11.1724
1.46724 2.72261 11.2167
1.21337 3.54444 14.204
1.57102 3.92263 9.48828
0.574879 3.2506 20.1001
2.23151 5.2556 19.2037
2.08146 3.81682 13.153
1.49556 5.25902 26.0889
1.79647 4.19999 13.984
1.63407 6.98595 28.2916
2.05321 6.35966 18.0622
1.52797 3.2674 17.0093
1.53763 2.79269 9.66875
1.19164 2.69677 14.4938
1.48217 4.21514 11.6772
0.836517 3.46177 14.2473
1.48379 5.30258 16.9555
1.79897 4.29871 15.2488
1.43883 3.82003 14.4179
1.78997 6.52078 29.0573
3.28989 6.15167 17.7333
1.53141 3.85447 18.0118
1.41899 3.57238 14.1834
1.9172 3.80641 15.6042
1.53293 3.24765 12.4453
1.85315 4.29156 10.7531
1.48835 3.81425 15.8788
1.92857 6.58418 20.3536
1.1379 4.3099 19.9844
1.93306 4.65803 13.3857
0.992926 3.36338 10.9672
0.817305 3.00365 9.76442
0.984822 3.73424 21.3224
1.74455 7.27034 14.8372
0.999214 5.10072 22.9249
1.67131 2.79175 15.434
1.74387 5.70912 25.0161
2.32695 5.78048 11.5019
0.687611 2.21005 8.27687
1.07721 3.04001 22.2732
2.15853 5.76821 12.9454
1.20519 2.48386 16.5416
1.7802 4.47385 16.0449
1.55725 3.98817 15.8803
1.64291 3.74078 18.0583
1.49394 5.35655 26.173
3.01679 4.45055 12.4392
1.5769 3.78129 21.0312
1.81864 6.0649 18.2253
1.24129 4.70017 17.8643
1.73426 4.40591 12.9165
1.38912 6.2119 15.735
1.01457 3.51262 14.5633
1.82222 4.78596 17.7611
1.40951 2.94389 10.3228
1.14928 3.69746 14.5569
1.60157 3.42628 12.4966
1.39223 4.22122 23.9247
1.60621 5.01589 15.0846
1.45654 3.92213 13.1409
1.57891 5.73703 19.565
1.59494 3.75057 14.0949
1.53343 5.69111 22.2871
1.31261 3.63967 20.1244
1.1902 7.25743 23.4682
2.12201 2.3592 18.6229
2.03324 5.10486 18.1417
2.15394 5.9953 12.5501
1.32585 4.79849 19.3143
1.34635 3.73208 19.8373
1.40639 5.58843 9.82046
0.925522 2.01861 10.5778
0.965072 2.63378 11.966
1.36959 4.93132 17.4111
1.14613 3.62042 14.449
1.29327 4.86303 21.2309
2.05256 5.07656 13.8741
0.862905 2.49176 8.41444
0.969109 3.50205 17.4563
1.76726 3.25916 12.6045
1.08844 1.50905 8.81075
1.28986 3.12492 11.6012
1.34243 3.30327 16.0826
1.92111 6.90339 12.3796
0.828127 4.42267 22.7941
1.57542 3.88282 17.4231
0.863283 2.88302 23.1113
1.85733 6.24937 12.9633
1.32183 5.91652 18.4899
1.36939 3.75371 20.7528
1.7472 4.69587 18.5929
1.26991 3.66636 13.0645
1.11859 4.72021 23.3859
1.87828 4.5614 16.2946
1.4161 2.61269 10.624
0.842997 4.02546 19.792
1.71617 7.06541 34.5099
2.44232 4.6153 16.8924
1.42425 4.36064 10.827
1.33141 3.38075 18.0954
1.96546 4.97709 14.5711
1.12124 5.25876 15.1883
1.36134 2.76877 11.974
1.06106 3.99702 15.4347
1.54344 4.44892 20.4985
1.01517 4.56059 15.6343
1.1365 3.5933 15.3107
1.22297 4.53738 14.5123
1.2187 3.4915 17.8038
1.49416 4.39598 15.7613
1.89781 4.75193 18.4671
1.62571 9.16585 32.9194
2.86988 4.36371 25.0187
2.10724 5.86048 35.0234
2.27111 8.23323 17.2952
1.59662 3.63557 17.8128
2.10781 4.2899 10.3259
0.967337 2.90806 14.342
1.14075 3.41259 9.94234
0.941367 3.81295 19.2313
2.09385 9.35306 23.0012
1.33505 3.48 23.8204
1.95451 3.64567 22.2573
1.87732 6.29869 15.0073
1.05305 4.25566 21.9118
1.64869 5.8081 19.7959
1.81615 4.41995 27.4908
2.00614 7.26323 25.4632
1.68273 6.01234 16.0308
1.61277 3.53928 11.6385
1.05481 3.39783 27.491
1.77973 6.92868 15.0328
1.3602 3.85733 11.9059
0.864554 4.53257 14.1236
1.53707 2.61819 18.72
2.04743 4.69474 22.1001
1.54568 4.51321 15.3381
1.62168 6.05234 14.4506
1.33022 2.18924 9.49234
0.989436 3.30324 14.9271
1.57732 3.79581 28.3278
2.24605 7.43995 26.8108
2.82639 6.20787 15.2095
1.39327 4.55079 21.632
1.94472 5.68568 13.3944
1.06389 2.52948 13.0863
1.09221 4.56006 18.4718
1.16854 4.37988 24.0085
1.39516 5.35944 13.226
1.01175 4.43014 20.6875
1.31854 6.77141 22.9238
2.10237 6.27627 18.8234
1.63339 2.02863 17.3797
2.18097 5.72638 17.3798
1.63446 3.40706 25.9787
2.74858 5.60206 15.8065
1.54519 4.72175 14.4731
0.832374 3.32696 8.2212
1.19937 2.26041 12.4666
1.13148 2.9365 9.42484
0.798694 2.96281 25.24
2.03474 4.23356 8.17011
0.946506 3.88197 17.6021
1.76429 4.78964 8.7374
0.879946 5.43421 19.8357
1.29812 2.56024 15.394
1.57273 6.02344 26.5846
2.47588 3.23553 10.2768
1.23801 4.44675 17.4226
1.97337 4.22961 15.3463
1.65876 3.48098 10.6307
0.969585 4.26598 17.0782
1.33069 3.62197 13.5922
1.55235 4.62371 25.244
1.75052 7.5481 18.7367
1.45368 3.50578 9.50644
0.882793 3.79847 24.596
1.97039 5.46054 16.461
1.43283 4.20627 15.8632
0.896328 2.22801 16.6905
1.65237 6.21969 12.7241
1.18764 5.16241 19.397
1.03897 4.22981 27.8302
1.65205 4.18351 18.7042
1.23079 3.14239 17.9781
1.29793 5.72896 11.9363
1.37209 4.04934 12.467
1.123 3.62442 20.0575
1.19131 2.71564 9.32031
0.779546 3.26274 10.8319
0.997752 2.07461 15.1293
1.47202 4.2249 17.2836
1.177 3.45988 13.9169
1.3617 3.00527 18.4614
1.08715 3.52196 14.008
1.39427 3.21648 15.6209
1.22964 4.06193 8.07107
0.492959 3.19684 9.38713
0.816556 4.04784 33.6285
1.80145 5.98505 22.2039
1.8824 5.48118 22.7705
1.33926 3.8003 9.58803
1.15265 4.81531 16.2993
1.41369 3.40183 12.6953
1.20867 2.86263 13.8877
1.00197 4.57551 16.9291
1.32368 5.14225 17.3908
1.01543 3.51457 9.93665
0.755321 4.51545 25.8664
1.71714 5.86527 20.6439
1.79888 5.48985 16.3123
1.6099 3.62926 16.7534
0.964492 2.9587 16.2824
1.37518 5.76898 23.6484
2.00329 4.56292 14.8149
0.783341 3.34945 14.8052
1.13246 5.54244 14.073
1.24185 4.24875 15.5553
1.59017 5.54683 23.8528
1.99456 4.50102 16.9417
1.5003 1.76444 10.8271
1.28512 4.34733 11.048
1.27187 4.94037 26.0668
1.89791 4.74257 13.3638
0.781885 1.94669 10.878
1.01341 3.15963 16.74
1.56355 3.48497 12.4007
1.27722 4.54106 19.3875
1.69734 2.48202 14.0137
1.06826 3.54244 18.8352
1.62468 4.5628 25.2307
2.21827 6.06413 15.5919
1.69109 5.11007 16.9402
1.27943 2.51374 9.79669
0.960651 3.29195 15.525
1.34471 4.41697 21.9255
1.72918 5.58969 11.5581
0.933288 1.36785 8.67648
0.542265 2.43491 12.1238
0.982162 4.3364 17.647
1.34906 5.60378 17.4592
1.63702 4.34728 17.0531
1.6864 3.88489 20.5225
1.64779 3.69401 14.3652
1.41692 5.47146 15.0007
1.49124 4.225 27.0145
1.91597 5.72759 14.5793
1.22754 4.24129 22.3638
1.82215 3.91385 17.3228
1.03051 5.00156 12.55
1.08777 2.70593 24.1701
2.16224 6.0453 22.6193
1.54341 3.3217 9.89752
0.815651 4.57584 13.8454
1.58175 6.97189 24.111
2.28591 3.03049 16.0494
1.77692 5.23789 15.413
1.37361 4.87295 20.0462
1.03788 4.76822 23.988
2.14565 0 0