# pn-170911/RbIIA-29-AMC2-1280-1959.psd
# Power spectrum* (dif=0,1,2) (really just |FT|^2)
# NOTE: only the first half! (symmetric)
# weeks: 1280-1959
# 24 clock-days, 9 excluded
# PSD: 1441
5969.48 0.130399 0.00615154
157436 1.61194 0.0023189
1.11387e+06 28.7963 0.00300462
108002 3.31524 0.0027175
108369 6.21758 0.00265094
53235.5 4.53118 0.00253466
20933.4 2.36554 0.00296989
16739.2 2.67426 0.00267504
16437.4 3.29708 0.00289685
15244 4.54993 0.00487691
11664.9 3.79778 0.00359015
4069.97 3.09001 0.00406994
8083.22 4.42607 0.00544334
6301.4 4.12651 0.00599756
4803.01 3.31567 0.00331631
3940.05 3.37542 0.00668072
4459.51 4.26542 0.00902116
2716.73 3.51683 0.00754245
3520.69 3.91014 0.0105191
2338.72 3.26667 0.00820538
2464.06 3.7085 0.00837301
1711.27 2.9896 0.00833181
1764.53 3.59105 0.0110042
2109.92 4.40701 0.0156952
1370.13 3.10588 0.0110122
1307.36 2.12886 0.00791543
1506.45 3.77971 0.0121986
1189.79 3.22044 0.012166
1661.77 3.95534 0.0182835
1302.28 3.52247 0.0193603
829.949 3.31499 0.0165278
1458 5.80934 0.0301982
955.057 3.72707 0.0171573
859.058 3.48277 0.0243767
1006.23 3.89655 0.0264813
806.917 3.54504 0.0214918
745.467 3.04655 0.0202325
783.102 3.64551 0.0260181
859.496 4.95079 0.0385461
690.315 4.06791 0.0263307
568.239 2.98005 0.0287925
585.971 3.02369 0.0265784
509.046 2.98952 0.0226127
590.876 3.45502 0.0310945
612.273 3.65591 0.0394881
701.211 4.80024 0.0487256
395.956 3.77211 0.0433093
503.718 3.69539 0.0434998
336.573 2.57449 0.0291351
470.442 3.80492 0.0453622
441.974 3.72908 0.0415703
407.854 2.86975 0.039734
364.799 3.28869 0.0474763
335.645 2.40033 0.0356625
337.173 3.48596 0.0490335
356.005 4.97203 0.0798171
288.234 3.06303 0.0467188
379.166 4.33531 0.0679589
268.979 3.41828 0.0620621
324.942 3.97271 0.0686449
395.787 5.06623 0.0865294
325.449 4.36903 0.0773894
255.544 3.59642 0.0640139
248.232 5.01243 0.0951303
241.128 3.66078 0.0758616
292.172 4.5413 0.0925757
218.534 2.83088 0.0583753
244.2 3.81627 0.086721
220.916 3.18837 0.0714603
272.105 4.23839 0.0926769
291.623 5.33323 0.137483
186.056 3.70733 0.0896386
248.623 5.21621 0.123743
147.649 2.68044 0.0713305
165.378 2.1053 0.0629168
270.699 4.90299 0.12387
166.448 3.80433 0.102893
121.405 2.90299 0.0935154
192.442 4.07554 0.118034
183.207 3.36504 0.104997
159.346 2.7604 0.0776244
193.809 4.12063 0.13168
161.992 3.0779 0.102434
146.544 3.9 0.134315
173.375 3.72084 0.127676
157.385 4.44155 0.151562
136.665 3.67561 0.140745
152.923 4.02252 0.147027
118.428 3.13822 0.117513
140.718 2.87675 0.111254
198.224 4.73731 0.18096
116.858 3.01401 0.112224
159.502 4.47034 0.181387
103.018 2.68823 0.120574
140.618 4.3346 0.177483
144.332 4.64062 0.201931
135.879 4.55599 0.194281
98.9467 3.74778 0.166145
110.607 3.69079 0.163887
90.6951 3.59157 0.174599
127.847 3.61596 0.167971
86.5186 3.01587 0.149367
89.625 3.25709 0.168625
111.509 4.21414 0.204667
100.602 3.3402 0.178207
107.046 4.65725 0.241342
94.8841 3.28884 0.180986
94.7603 3.66181 0.19187
104.811 3.59284 0.212151
105.132 4.91403 0.290902
58.9964 3.18483 0.17963
104.898 4.06536 0.233133
82.2736 3.75215 0.22494
80.3405 4.24291 0.260297
115.068 5.58862 0.3561
67.9884 4.83383 0.321537
73.4031 4.21059 0.25696
83.1869 4.55595 0.319162
92.2249 4.75599 0.319009
78.4528 3.48733 0.211186
73.9569 3.98951 0.284985
81.8295 4.2588 0.306862
102.155 4.68352 0.350118
67.5343 3.50649 0.249598
79.1056 4.1048 0.295048
58.941 2.86163 0.220822
61.2737 3.24176 0.240311
55.3005 3.47515 0.267594
80.9861 5.55185 0.429795
93.9386 4.84473 0.410135
42.8578 3.36085 0.278899
73.7104 4.61405 0.359455
69.3271 3.53397 0.267908
69.1353 4.29234 0.358463
49.2915 3.62139 0.311391
55.9331 3.27646 0.28515
52.981 3.8822 0.365979
72.5104 3.96533 0.334892
61.5856 4.03599 0.357356
63.1152 3.97162 0.370807
48.3902 3.06512 0.284104
53.7445 4.25574 0.379661
24.4946 2.24691 0.218368
38.2225 3.5597 0.356177
58.4019 4.47904 0.424619
49.8162 4.01568 0.398156
41.513 3.57915 0.358289
47.5658 3.56026 0.36292
36.0503 2.75752 0.278307
41.1228 2.96972 0.33871
59.7165 4.43112 0.481102
57.6844 4.4469 0.488498
36.3795 3.71482 0.399262
47.921 2.82639 0.346851
39.1772 3.99472 0.48055
43.8683 3.72811 0.44014
39.9981 3.68071 0.38856
45.5877 3.6261 0.405948
57.3347 4.42359 0.523063
40.5616 3.21655 0.41999
55.7508 4.50361 0.56465
37.0722 2.99691 0.379041
42.3738 4.24864 0.542735
57.225 4.98824 0.594669
43.514 4.65919 0.611062
30.3361 3.06696 0.406105
31.6438 3.64937 0.47475
34.463 3.38033 0.428813
47.7447 3.75803 0.485561
42.2566 3.81585 0.526181
36.3132 3.60729 0.508428
43.0424 3.75189 0.495543
38.0119 3.89047 0.559633
43.2738 2.97168 0.367087
38.9546 3.12357 0.460136
27.2913 1.98411 0.308817
25.3457 2.46786 0.336894
32.7461 3.32875 0.507736
18.1305 2.4253 0.371252
35.7677 4.43404 0.700873
24.6433 2.75046 0.402346
30.6307 3.3788 0.533059
28.4702 3.52307 0.54659
54.7863 7.08196 1.11536
34.8032 3.853 0.568538
32.3983 3.22449 0.542503
26.543 3.08861 0.52815
26.2263 3.31454 0.584866
28.9649 4.36554 0.715616
31.2453 3.48627 0.549178
37.6604 3.90439 0.659112
31.9385 3.99557 0.7028
36.5361 4.74984 0.794564
24.1992 4.62136 0.805837
33.2574 3.88573 0.715713
21.252 3.72197 0.635267
28.2518 3.40671 0.639165
36.6793 5.02129 0.910269
28.7065 4.98916 0.965209
41.4496 7.0351 1.24186
24.4498 3.02404 0.549623
27.3596 2.8984 0.550004
23.9937 4.31002 0.874696
25.4319 3.26518 0.623986
27.5928 4.11117 0.773127
34.4272 4.51873 0.879527
24.4706 2.86641 0.597691
22.9373 3.17502 0.616745
23.1338 3.30199 0.669187
21.4485 4.00779 0.798214
16.2458 2.91628 0.626619
21.7417 3.19396 0.638064
22.0064 3.78322 0.820994
24.9382 5.13241 1.09693
20.972 3.79351 0.842548
29.3509 4.06871 0.916543
22.0145 3.7253 0.755013
24.0316 3.58407 0.76487
13.9773 1.89361 0.472036
24.5352 3.0253 0.66266
19.4333 3.48043 0.768193
18.3105 3.10677 0.718195
15.5167 2.51382 0.578394
23.6819 3.69694 0.841131
14.2865 2.4035 0.608904
18.762 2.55917 0.58414
18.8876 4.00224 0.987907
26.7048 4.65221 1.11299
19.8444 3.93889 0.966275
19.2938 3.66717 0.906208
27.5802 5.24627 1.29239
23.8705 4.09251 1.01184
26.3202 4.42486 1.04496
23.8311 4.33595 1.0695
19.6791 3.98851 0.968767
20.136 3.53863 0.922635
19.732 4.28254 1.15211
23.2761 3.73032 0.968794
27.4291 5.62866 1.39482
25.267 3.97892 1.10559
16.5611 3.03089 0.823892
19.5741 3.49689 0.946457
24.3375 4.30593 1.25602
16.5609 4.30507 1.17309
16.7725 2.98275 0.828858
17.7091 3.54791 0.977443
12.3499 3.8576 1.09778
22.7632 3.92327 1.08866
20.3905 3.90851 1.07881
18.0251 3.7259 1.11955
12.5246 3.0957 0.914815
14.0015 2.56343 0.805891
15.9148 3.15427 0.860794
18.7478 4.2852 1.33095
15.737 3.52249 1.08878
17.4835 3.79378 1.14352
15.4258 3.60435 1.11233
22.7983 4.63689 1.33877
15.0415 3.91138 1.24641
12.3255 3.62016 1.16288
16.201 3.44139 1.02729
18.7454 3.90942 1.29609
22.383 5.1716 1.65127
15.9117 4.141 1.28099
13.3083 3.22963 1.01648
17.8111 3.65653 1.20786
13.5619 2.72029 0.958225
11.5516 3.66233 1.25476
14.8988 3.36971 1.15071
19.6827 5.61023 1.78571
15.5528 4.07632 1.25256
15.5185 4.30282 1.51516
12.6326 3.18871 1.07387
13.4642 3.32118 1.12648
15.2087 4.12828 1.4499
14.0259 3.57865 1.25263
14.7366 3.74966 1.27764
15.8809 3.8929 1.37835
14.9119 3.46356 1.18829
16.2469 4.29385 1.68313
15.4012 3.35296 1.14599
11.6927 3.69797 1.34087
14.3999 4.72474 1.75222
16.1978 3.83142 1.39592
11.9024 3.45227 1.36191
14.9773 4.72024 1.71604
16.104 4.76236 1.94641
12.3748 3.72708 1.6016
14.0625 4.26104 1.4806
16.0642 3.32167 1.11598
15.093 4.18087 1.66458
21.656 6.19375 2.40905
12.2362 2.95866 1.27082
15.0131 4.75453 1.75165
10.4186 2.97442 1.13622
18.257 5.80697 2.22731
11.9336 3.03113 1.34897
10.5206 2.89801 1.09032
12.7372 3.66491 1.56238
12.8149 3.58058 1.39632
9.66446 3.28224 1.46356
15.5299 4.4264 1.87139
15.7755 4.19425 1.74708
11.295 3.42517 1.55589
11.8799 3.78216 1.57252
13.4444 5.03492 2.22187
13.467 3.75353 1.52487
12.5372 4.69603 2.03853
15.6711 4.4822 1.74377
9.6907 3.40015 1.61597
13.6963 4.30652 1.9115
11.8776 3.68107 1.54258
13.3775 4.46505 2.13817
10.6203 3.71937 1.835
12.1529 4.45941 1.95991
12.052 4.80477 2.49371
11.5667 3.49652 1.4793
11.9793 5.7694 2.85276
16.2735 4.89825 2.05631
14.5555 4.47554 1.99291
13.2456 4.35667 2.01164
16.3312 5.4609 2.45372
11.6448 3.80314 1.90109
13.3937 3.84249 1.83952
11.6581 3.66655 1.59971
11.4866 3.95683 2.11048
12.5075 4.31321 2.08657
7.54026 2.85465 1.41686
9.81456 3.17883 1.53526
12.4317 4.3317 2.08296
7.93218 2.42906 1.14818
6.97274 3.54919 1.86751
10.2801 4.28881 2.23645
8.40328 4.20267 2.13337
11.7423 4.03996 2.07953
12.664 4.37457 1.99299
12.7796 5.30273 2.8814
8.16054 2.58657 1.59096
9.89808 4.84489 2.38489
6.96549 3.97597 2.31923
9.57826 3.77678 2.16315
11.9287 3.81311 1.68801
10.5826 3.84725 2.03447
9.94497 4.11986 2.28925
9.94645 5.43903 2.918
9.3023 3.20442 1.8527
10.5685 4.79845 2.52949
7.61988 3.94484 1.93212
10.139 4.71332 2.78757
11.754 4.96387 2.63759
11.8915 4.22795 2.19011
7.50165 3.39525 2.0488
8.45017 3.43023 2.04474
11.0924 4.51466 2.7484
8.11823 3.35118 1.60552
9.28945 3.41014 1.91349
8.92888 4.66536 2.62729
8.95925 4.22413 2.72756
6.84773 3.57786 2.20758
9.24658 3.58622 2.01872
6.32673 3.57302 2.22558
9.20378 4.08514 2.18505
10.7832 4.3842 2.44001
10.7093 4.48027 2.82266
7.40465 3.82641 2.28311
6.81164 3.56159 2.30389
9.50334 3.83116 2.19269
8.21322 3.09154 1.92668
11.3973 4.62974 2.9469
9.55239 4.48106 2.62169
5.6111 2.84726 1.81604
9.04837 3.98468 2.26142
8.98694 3.8291 2.42319
6.02186 3.09303 2.21745
8.44506 3.25077 1.83183
6.75674 3.61017 2.2564
9.68011 4.35564 3.02268
13.048 6.43078 3.84577
7.96859 3.54895 2.1412
7.45337 4.30515 2.77184
7.86907 2.66259 1.84844
9.09534 3.08723 1.9598
6.89276 3.27186 1.98258
7.91402 4.04075 2.7242
5.86835 2.82189 1.91583
7.12741 3.99513 2.50674
4.98163 2.27758 1.401
8.14022 4.52106 3.62573
7.907 3.43085 2.11789
9.05186 3.82555 2.83935
6.96959 4.17978 2.50032
5.34666 3.37118 2.39945
8.36683 4.81461 3.37247
7.21747 3.17378 2.29083
7.52036 5.01869 3.4675
6.62055 3.70337 2.83323
7.02928 4.10158 2.79574
8.88913 4.7034 3.31909
9.89529 4.39351 2.95863
7.66404 3.31082 2.56484
7.6123 3.42499 2.30442
9.69163 4.58746 2.89577
7.09529 4.30738 3.183
7.90372 3.63035 2.38501
8.38567 5.53054 4.08549
8.10763 4.41361 3.34236
5.19217 3.03888 2.70594
7.03237 3.35476 2.49084
9.2046 4.80879 3.36719
7.75617 4.11998 3.29044
8.88784 4.8072 3.34491
5.0813 4.01425 3.15977
6.83627 3.83609 3.10279
6.77456 3.86643 2.95209
11.713 6.85446 5.23982
5.16987 3.23409 2.43934
5.31198 3.15689 3.07697
9.69482 5.68279 3.55535
6.21346 2.89651 2.17602
6.62944 3.58358 2.69093
6.57068 3.72233 2.8975
5.22663 3.41261 2.78513
7.82098 4.02813 3.1355
8.40392 5.29631 4.57557
9.86905 4.67289 3.54113
5.40523 3.49923 3.01955
5.7338 3.41981 3.03711
7.91907 4.83058 3.57778
7.08933 3.35802 2.32219
7.45635 4.41411 3.47811
6.66385 4.34329 3.83225
6.51932 3.93451 3.03353
6.151 3.68361 3.20889
6.37656 4.50732 3.97092
8.55306 4.88199 4.00834
7.83168 5.18085 4.23824
6.58631 3.54661 2.88149
5.22661 3.20387 2.69741
7.40375 3.96562 3.26305
6.33215 3.78113 2.85387
7.05568 4.71541 4.52422
5.53949 4.19637 3.56805
6.129 3.53281 3.17396
6.24802 3.72629 3.06769
4.26987 3.03763 2.62235
7.15259 4.7136 4.12473
5.88664 4.26982 3.56856
7.02772 4.40792 3.31996
4.1754 3.48973 3.4782
7.90046 4.49577 3.70881
6.70025 4.97029 4.09774
4.3229 3.1264 3.01175
4.88954 2.8373 2.5976
5.50601 3.38341 3.18548
5.57495 4.13168 4.24787
5.85159 3.22696 2.20504
5.79734 4.71067 4.49257
4.97709 3.85395 3.31158
6.36055 4.29456 4.31613
8.00817 6.34007 5.29082
4.72823 4.43493 4.47995
7.2792 4.81955 4.43628
6.16608 3.32375 3.16688
4.06923 3.39007 3.19882
5.90627 3.6553 3.18831
5.46816 3.95677 3.65969
3.79511 3.0781 2.83424
5.953 4.67937 4.44097
4.66753 2.0989 1.90105
4.69999 4.12383 3.84008
6.31849 4.28837 4.44786
5.42994 3.87733 3.58414
6.16075 4.07022 4.25306
5.95046 5.19858 4.69743
6.32643 5.02688 5.04068
9.3053 7.14309 7.46219
6.93065 4.77633 4.63584
4.64127 3.85112 3.87104
4.44037 3.74698 3.63959
4.70766 3.53132 3.63493
5.99376 4.3528 4.42329
7.10774 3.65965 3.96498
4.82552 3.60244 3.54169
6.61257 4.9166 4.35666
4.6844 3.89235 4.42202
4.56474 2.6497 2.81031
6.2085 5.01779 4.63606
3.38788 3.37049 3.72925
6.33308 5.12502 5.18922
5.25786 3.2624 3.69984
6.01498 4.61287 4.362
3.34691 2.61377 2.90959
5.24587 3.24933 3.16897
6.1634 4.07826 4.07846
4.77426 3.97651 4.25094
4.1023 3.43043 3.69942
5.68805 5.09831 5.38953
4.09208 2.73384 2.88053
4.63145 3.65054 4.05916
4.05886 2.37601 2.82028
4.4855 3.84362 4.42268
4.70087 4.39094 4.56678
3.91254 3.75039 4.0603
4.66242 4.01959 4.62085
5.29694 3.60602 4.32926
5.74718 4.31706 3.99428
4.44506 4.24698 4.30447
2.93185 2.15675 2.58442
5.78134 4.76263 4.88763
3.82417 3.83848 5.31385
4.71036 4.53439 5.27088
6.81032 4.62597 4.50765
4.45987 3.83399 4.67879
5.63553 5.0185 5.50592
4.12418 3.24715 3.12459
4.38275 4.16054 5.10077
4.02188 3.4102 4.35617
5.34585 3.91176 4.52317
3.8152 3.63286 4.46173
5.75493 4.07321 4.27766
3.98904 3.61798 4.62961
6.40148 5.33896 5.66015
4.49417 3.85723 5.49391
4.37818 3.69039 3.39866
3.25935 3.62929 4.8379
4.81378 4.7773 5.13486
5.91934 5.09971 5.33168
5.06769 5.59287 7.58894
4.16737 3.84731 4.06115
4.63257 3.94161 4.29982
3.47641 4.17556 6.01831
5.79774 5.38547 5.71036
3.66816 4.3361 5.46354
6.23103 4.10365 4.3989
3.50273 3.85601 4.96164
4.26545 4.3798 5.35177
4.08035 3.62707 4.73487
4.97463 4.40777 5.6224
5.36617 3.9107 4.53968
4.87658 4.11217 4.70348
4.0007 4.59014 6.11105
3.30314 4.07974 5.96226
4.15688 4.09235 5.25459
4.96103 5.78442 6.28018
3.91059 2.95725 3.65095
4.8964 4.7789 6.03171
4.4061 3.6341 5.32329
4.1281 4.13611 4.91889
3.64637 3.71842 5.79663
6.06093 5.28049 6.28286
4.92966 5.48131 6.13237
4.28641 2.99407 3.67638
3.64712 3.18195 3.6256
4.39619 4.6454 6.43448
4.00395 4.48354 4.96811
4.04372 4.63814 5.92636
3.51952 3.55664 5.05222
3.98143 3.49673 5.14267
3.78748 3.99948 5.03696
4.57256 4.77226 5.81104
4.34825 5.62188 8.02815
4.26639 4.00972 4.60094
4.68932 4.09072 6.00334
4.57992 5.04122 5.76809
3.52274 3.52333 6.21759
4.78187 4.59246 5.77142
5.27273 5.16206 6.46954
4.08449 4.80123 5.75994
4.01689 5.10529 7.36572
4.02537 3.76202 4.82431
3.58162 4.29791 6.50729
4.43033 3.33046 3.79003
3.86523 4.13691 5.87507
4.62844 5.81354 8.15768
5.09377 4.64938 6.3836
4.46141 4.89659 6.89853
4.95122 4.57543 5.84853
5.06294 5.14719 7.05342
4.21299 4.51672 6.28905
2.91167 3.7392 5.48972
3.59731 2.9469 4.99304
4.43446 5.49055 7.73247
3.97063 3.76012 5.74495
4.85518 4.16611 5.65422
4.12411 4.42713 5.77962
4.36579 3.9755 5.57711
3.28389 4.29595 6.40908
5.16844 3.99549 4.86579
2.89781 3.00613 3.40861
4.13724 5.23945 7.92626
3.07541 2.97513 5.44276
4.33002 3.0334 3.52441
3.35191 2.6993 4.82187
4.0494 4.81602 6.67528
4.7613 4.36836 5.29569
3.72464 3.90432 6.10028
4.4723 5.84417 8.89146
5.05933 4.68283 7.02313
4.33345 5.49188 6.19737
3.83838 5.16184 7.96996
2.72218 3.5981 6.29207
3.54602 3.70522 4.9289
2.51041 4.10379 6.3232
3.55339 5.02988 8.29817
4.34151 3.51354 5.9177
3.60456 3.79066 6.39131
5.16583 4.70354 6.18352
3.73513 4.23227 5.99557
3.30995 4.42611 8.86993
4.47207 5.52937 6.37527
3.29528 5.46596 8.62109
3.83095 4.01835 5.74111
4.15023 4.89893 8.05118
5.0597 4.15075 5.33385
3.96097 5.45042 8.59137
4.55028 5.25568 7.40635
4.84403 5.46251 7.02599
2.47743 3.78025 8.0602
4.89484 6.65037 8.91489
4.03012 5.50674 8.74013
2.4359 3.53531 5.75088
3.92404 3.84185 6.64458
3.78075 2.96309 4.11418
2.51412 2.64656 4.69393
4.44289 5.93543 9.53497
3.13359 4.03624 6.96905
4.61056 6.1161 9.29121
3.44616 3.67692 5.19573
3.28621 4.20116 6.2993
2.48428 2.98512 5.76402
3.70396 3.11848 6.0185
4.04511 6.11038 8.55339
3.1752 4.46246 7.55624
2.67638 2.91688 4.65703
2.89586 3.90614 6.27333
2.8854 4.73878 8.09703
3.97653 4.51899 6.59489
3.68054 4.49786 7.72455
3.14618 3.80651 7.27774
4.60354 3.95959 6.44451
4.87479 5.95796 9.60954
3.6604 4.36445 6.67329
3.29823 4.58675 8.4996
2.99294 4.13465 7.3973
4.39033 5.24843 9.4104
2.81406 3.04753 5.38653
3.70003 6.55687 9.97211
2.93697 3.26088 4.97738
2.91222 3.43819 6.05368
2.559 3.5382 5.98106
2.65778 3.7417 6.47936
2.98722 4.51913 8.17933
3.20471 5.15857 9.10191
3.59823 4.78965 8.20486
3.05155 3.39685 7.28291
4.08813 4.03594 5.65741
2.87645 3.65735 6.64963
3.59806 3.55909 4.6352
2.59328 3.77057 6.52181
2.9346 4.61452 8.87703
3.33041 3.74723 7.13493
3.9764 5.27326 9.08742
3.54075 6.18746 9.62568
1.88459 2.76328 6.6923
3.04533 2.8558 5.14188
2.85244 3.24186 5.00283
2.58934 3.80825 7.53354
3.92111 4.34372 6.7705
2.74075 4.72855 9.36764
4.9495 5.51191 9.12417
3.68316 4.81453 7.42309
3.0755 4.00249 7.66289
2.35617 3.27878 7.50722
4.26107 5.40548 7.31757
3.41907 4.06644 6.99536
2.72641 4.39352 8.57753
3.27753 6.10535 11.4742
2.88867 2.70251 4.86503
3.11119 4.26531 8.65697
3.55227 3.71187 5.61889
2.92548 4.44977 8.00939
2.96804 3.30127 6.53743
3.43822 5.71741 9.62882
4.88476 7.69702 12.7274
3.18277 4.49654 8.69545
2.84863 3.74006 7.03205
2.84106 3.55975 7.55583
2.0898 3.69901 6.86176
2.81597 3.54296 6.52125
3.12198 6.04693 12.3873
3.92257 4.10578 6.04523
2.72341 3.91148 6.46031
3.2618 5.20662 8.98859
1.92195 2.85427 5.77566
2.80505 5.68883 12.6491
3.00081 5.09689 9.33033
4.02004 5.80118 11.8623
3.75176 5.90913 10.4114
2.67167 3.38391 6.55181
2.13204 3.39928 7.77894
2.86919 4.38341 7.7455
3.47356 5.93275 12.0305
3.04257 3.62467 8.74455
3.86381 4.30298 7.22679
2.4058 2.80042 5.39146
2.9311 3.92634 8.25331
2.78456 4.2081 9.29763
3.82263 4.34558 6.64556
3.35529 4.40409 7.90019
3.14055 5.47933 10.8273
3.32749 5.0536 8.72026
3.38717 6.47202 13.3959
3.5833 5.18571 10.238
3.71214 6.06602 11.4227
2.77407 3.28256 6.70772
2.31528 4.29681 8.07677
2.51153 3.75925 8.00974
3.01754 4.65092 8.3395
3.39045 4.76798 10.0951
2.84454 3.77959 7.00529
2.38155 4.02532 7.86693
2.32503 4.2776 8.91039
2.65235 4.2544 9.47892
2.52516 4.37587 11.1744
3.0644 4.06128 6.27369
1.93169 2.98812 6.9377
2.78138 3.85777 7.83803
2.46483 3.15361 8.42895
3.0733 3.95764 8.36828
3.00945 4.52405 7.50051
3.1017 5.23594 10.1147
3.0216 4.56329 8.3784
2.48936 5.14063 10.6077
3.83347 5.25958 10.8153
2.81382 4.77893 8.44204
2.37645 3.95349 8.2952
3.20719 5.66677 11.7686
2.87177 2.88503 6.01031
2.38555 4.68847 9.76045
2.83734 4.0984 9.61963
2.92937 5.11901 10.0502
2.99779 4.18955 9.31203
2.36991 3.07959 7.36744
2.52666 3.01198 6.07544
2.60038 4.25045 7.23424
2.18854 4.31951 8.65403
2.07439 4.72314 12.7512
2.77889 3.61306 7.69347
1.99882 3.4821 6.78842
3.63076 7.45173 15.8558
2.67793 3.71076 7.7443
2.11929 4.02009 10.0742
2.62207 2.90898 6.10405
3.18221 4.24825 8.04599
2.25531 2.87149 6.74306
3.10585 5.88957 13.0416
3.68009 5.05576 9.7273
3.46229 6.78036 14.2748
2.83834 4.62949 11.8495
3.79167 7.89533 14.8847
2.79191 4.76759 10.017
2.20428 4.55189 10.4724
2.76052 4.24568 8.55875
1.82128 3.5817 9.96002
3.18651 5.12307 11.1054
2.77996 4.59578 9.97392
2.79721 5.69443 13.0429
2.6196 4.35228 10.9167
3.26945 4.5742 8.48833
2.6524 4.44366 10.3076
2.97671 4.82328 10.7652
3.15701 5.07754 11.7427
2.61613 3.66335 9.57568
3.12028 6.13432 12.3703
3.34701 4.06017 7.42918
2.41326 4.53408 9.32867
1.85396 2.93093 7.72063
2.84882 5.89597 9.59051
2.24563 5.24797 14.2022
3.13904 5.71238 12.4865
2.8027 4.85255 11.9703
3.09366 6.46183 13.6908
2.63301 5.24544 12.9807
3.57573 6.78088 15.3318
2.69021 4.13786 9.69184
3.03576 4.51125 10.4432
2.72765 4.50277 8.60158
1.94358 4.24483 10.5546
2.6599 3.89378 9.22886
2.55745 3.7774 9.51031
2.44961 4.07863 7.91667
2.43094 4.45408 9.89539
2.24313 3.8811 9.70004
1.42557 3.19971 11.4115
2.92867 4.28791 6.71201
1.67279 4.23713 12.7194
2.72739 4.11142 10.5112
2.61682 5.39409 11.3498
2.85671 5.14931 13.1928
2.70977 3.77512 5.79944
1.63368 4.18188 10.0688
2.76943 4.02131 8.67084
2.66169 4.74859 12.2074
3.17808 4.7125 8.91978
2.47412 5.85035 15.8506
3.28344 6.72022 13.6037
1.80968 3.26611 8.6956
2.72516 4.28786 9.89764
1.86747 4.29067 10.4734
2.71042 5.85148 14.9095
3.54013 6.22103 13.9839
2.44208 4.6128 12.5766
3.04864 5.10525 12.4869
1.87287 4.11646 11.3254
2.1962 4.35691 9.38645
2.58573 4.94522 12.4673
2.72219 4.31213 8.80686
2.32754 3.65439 8.4721
2.11623 3.95613 12.7334
3.50602 6.69442 15.8423
2.47259 3.33884 9.65857
3.77298 6.98991 15.0421
1.93342 5.03114 13.7909
3.02918 4.22456 7.89876
2.24829 5.68042 14.8854
2.87236 6.19406 12.7997
1.86137 3.14675 8.25817
2.20264 3.71056 10.5477
2.47043 4.56179 12.0275
2.26086 5.16674 13.485
2.8533 4.00986 9.06311
1.32936 2.89409 7.88131
2.09983 5.47236 12.0798
2.65706 5.84867 16.7087
3.48939 4.86174 11.4453
2.91304 4.82548 12.0726
2.40896 4.76864 10.0354
2.18532 4.24218 11.3101
3.32197 5.2927 12.4686
1.86202 4.48008 13.4651
2.83149 3.9164 10.6474
3.20795 6.45057 13.0181
1.99962 5.14136 11.6722
1.93816 4.02416 13.1921
2.10522 3.67208 8.26441
2.26925 4.58192 11.1178
2.2425 4.08583 12.8561
3.25901 4.6519 10.3375
2.30313 6.46054 13.8549
1.73547 3.23907 9.79399
2.50018 5.8035 13.7877
1.99784 3.18959 8.78482
2.59197 5.35856 15.277
2.72375 4.18001 8.13995
2.04651 3.46757 11.8876
2.97773 7.05536 15.8389
2.38065 5.31169 13.7639
2.48856 3.32765 9.91046
2.52905 5.0571 12.1161
2.3748 4.69758 15.0386
3.11881 4.98026 10.5278
1.51104 3.52757 9.11733
2.5043 6.20319 18.0305
3.3642 5.86416 13.9057
3.02221 5.82891 12.9223
2.69168 6.09538 18.4074
2.44334 5.06731 14.9806
2.05167 4.9869 15.0017
3.02462 4.42386 8.77715
2.4885 5.03567 11.9716
2.58197 5.86461 13.8227
2.07823 4.38249 12.6923
2.57897 5.37086 16.9628
2.5083 4.3453 7.98962
1.45865 2.94556 7.66565
2.05225 4.57654 9.93645
1.73222 4.96982 15.0945
2.64747 5.84146 16.5238
2.6427 6.45549 15.0951
2.11311 4.78384 14.4194
2.52124 4.26808 12.5516
2.16002 4.65622 12.2889
2.89059 5.14931 10.098
1.75059 4.72941 15.5541
2.16333 3.25363 12.8341
2.58387 3.92969 9.79285
2.06397 3.40576 9.34626
1.92751 4.12828 10.7899
2.24404 4.75472 12.3297
2.8811 6.27615 17.5759
2.36276 4.6059 14.1615
2.24249 4.2944 7.62633
1.89888 3.93118 11.1263
2.17454 5.22526 10.9012
1.91853 5.58576 19.7382
2.19194 5.19286 14.9389
2.4342 4.74741 14.4305
2.31049 3.36894 9.70619
2.48139 4.65165 10.4435
1.7667 6.23038 19.2622
2.35016 4.27798 13.7352
2.95555 4.77301 12.0231
2.41063 4.51375 14.4144
2.8074 5.88146 12.6925
1.91043 4.13432 13.6185
2.74051 5.75629 14.0013
2.22588 5.1179 10.9954
1.91388 5.80086 17.8627
1.37595 2.61161 10.3292
1.34189 2.17749 11.03
2.54129 4.55848 11.5285
2.16917 4.47088 9.58082
1.79658 3.31412 10.2525
2.25456 5.33145 13.1257
1.97401 3.91 8.70872
1.25211 2.63058 10.3615
2.41996 4.91348 13.2503
2.45557 4.21413 12.8122
2.2027 3.95722 12.2678
2.39441 5.9611 12.8955
2.306 5.94034 18.537
2.60881 5.1929 13.8129
2.21073 4.47067 10.0371
1.86959 4.57409 13.428
2.14463 4.75888 10.2199
1.34934 4.79042 15.8455
2.22915 3.49572 8.57239
1.40273 3.23159 12.5359
2.57775 5.76367 18.4145
2.57488 5.89799 17.5878
2.4768 4.98737 14.6535
2.14667 4.50808 11.9717
2.2378 6.12118 17.2518
2.08166 5.03691 13.5308
1.42556 4.49804 16.3631
2.21606 4.90912 12.4711
2.16879 5.36203 14.9487
1.70818 4.85614 15.2284
2.32806 6.49105 14.2283
2.33362 4.8979 17.4228
2.21173 5.04424 14.8861
2.23873 5.61824 13.8195
2.08805 3.99903 13.058
2.33486 6.59719 17.5754
2.1348 3.62575 11.2461
2.3551 3.93867 12.2436
2.13695 4.8322 17.419
2.56256 6.70557 19.4738
2.51558 3.68573 8.38395
1.26154 2.99401 10.6673
1.92952 3.89789 16.3202
3.01501 4.06085 9.56896
2.12613 4.64815 11.7896
2.03102 4.6744 14.2186
2.03298 6.0906 16.0354
2.21795 4.53338 11.1655
1.25921 3.72523 14.0834
2.26782 5.26386 14.5419
1.90263 3.98028 15.3183
2.47326 6.42864 17.7155
2.27535 5.17548 12.2474
1.6427 4.96137 13.9578
1.66049 3.98486 14.9097
2.26034 4.57952 12.4945
2.08165 6.87031 18.7599
2.30723 5.81592 19.4368
2.07806 4.59499 13.4734
1.77956 3.60934 8.77701
1.98823 6.51695 18.615
1.99603 3.34317 12.3511
1.71402 3.78185 10.0272
1.85315 6.08359 20.1389
1.94692 5.45729 24.42
2.84694 5.56715 16.5686
2.12608 4.66637 12.8594
1.69296 3.65842 15.0312
2.42527 6.84653 17.8083
1.92998 5.26037 18.4937
2.52111 4.98216 11.7296
1.44274 3.12703 9.39096
1.58429 3.84738 12.9302
1.56625 3.62882 12.911
1.92513 4.24497 13.867
1.82152 4.17461 12.1655
1.46988 3.79166 9.66033
1.58739 4.42794 12.6468
1.75699 4.40546 19.3415
2.40449 5.76865 15.727
1.65533 4.4603 15.3898
2.61348 5.48069 18.4062
2.54475 6.46372 16.1944
2.6075 6.39216 13.0337
1.31801 4.0802 12.0395
1.70563 4.37087 15.4175
1.89403 4.93699 17.4879
2.10105 6.20081 20.2192
2.62749 5.25309 15.4267
1.94188 3.7794 12.0349
1.4288 3.71819 12.2918
1.75666 5.33458 24.2574
2.16627 5.63013 15.6703
2.67627 5.17415 13.7635
1.71976 4.87739 14.0116
1.82224 5.20532 13.8393
1.53887 5.85116 17.6851
1.84925 4.97967 16.4914
2.03059 6.53103 22.8959
2.69144 5.8221 15.4747
2.00236 6.16607 19.1481
2.10721 4.97453 18.6264
2.48348 7.03848 19.9275
1.67006 3.60772 12.2479
1.67172 5.1681 16.5684
2.448 4.9067 14.2791
1.78588 3.82481 15.1398
2.2401 5.71781 14.8313
1.62622 3.64428 14.0518
2.43615 5.54681 18.9933
1.97981 5.33967 16.324
2.46305 4.07782 14.341
2.11903 6.41392 25.0549
2.85288 6.57553 18.0899
1.81838 4.95097 15.8885
2.18105 3.70986 14.4173
2.16026 5.83681 14.3192
1.71766 3.725 15.1079
2.01438 4.5084 12.8044
1.62912 3.71177 13.4357
1.70981 3.79986 9.70475
1.52266 6.08351 22.1724
2.37799 5.64902 16.9805
2.6172 7.20506 24.6507
2.3852 4.54079 11.1642
1.68969 4.43391 15.9304
2.26029 4.87309 18.6168
2.00562 5.15704 14.5975
1.89363 3.44852 11.7564
1.8751 4.00113 11.4204
1.35454 4.11303 14.1314
1.54199 4.56564 19.0606
1.8065 6.01858 21.4741
2.11238 4.38281 14.1192
1.59958 5.66156 17.9377
1.88374 5.36832 18.4101
2.05122 5.93566 20.1386
2.04281 5.53593 18.0525
2.13685 5.36221 14.1085
1.39552 5.12169 22.3385
2.71756 7.05423 25.0442
2.32036 5.57963 16.7302
2.47606 5.71995 13.3832
1.66048 4.23196 14.5752
1.47194 4.96511 17.5897
1.87722 5.83882 21.3633
1.80244 4.07553 11.2376
1.87471 4.25418 12.3618
1.52042 4.2656 17.5518
1.64747 4.38981 21.9136
2.98251 7.07061 13.3864
1.17625 3.55604 10.2315
1.36422 4.01755 14.2474
1.6335 4.29844 19.008
2.20256 5.02569 16.9543
1.44614 5.40834 16.7882
1.61724 4.43295 16.7563
1.94989 4.1273 11.2464
1.2928 5.50102 23.4436
2.64621 4.39405 16.4621
1.92115 5.14597 13.795
1.25814 4.25565 15.19
1.73195 3.53675 12.4538
1.06946 2.77249 12.1721
1.70365 3.70042 17.4817
1.96209 4.98676 12.081
1.59786 3.3495 10.3301
1.20454 4.50485 18.9349
2.01547 4.34245 19.4189
2.59887 5.34806 15.6877
2.144 6.44923 14.8458
1.61263 4.81971 16.9331
1.91505 5.10194 17.7919
2.03716 6.11865 27.5674
2.62968 5.80012 13.7558
1.75582 5.64418 19.6292
1.66913 5.58225 18.9292
1.6067 6.01346 21.4584
2.41254 6.03471 17.5082
1.98355 5.40852 21.2174
2.02495 5.99947 21.4553
2.41631 8.32495 26.0137
2.39777 5.65222 19.5566
2.19833 5.18141 17.4458
1.82725 5.67278 19.3107
2.004 6.7124 21.1835
2.196 5.15227 18.8936
1.75777 5.61333 22.6206
2.18793 5.49085 15.1633
1.79793 4.45444 18.2095
1.57643 5.07088 17.5376
1.93627 3.27939 12.545
1.73438 4.9894 10.4915
1.3075 4.40963 15.7062
2.20771 6.33752 21.5163
1.59068 5.18921 16.2321
1.52774 4.94801 20.0225
1.75847 4.11223 12.2448
1.62763 5.26933 18.8961
1.7986 5.03839 20.7086
1.66303 4.91919 17.5484
1.82081 7.32931 22.7232
1.77807 3.50017 17.7066
2.20231 5.33532 17.5201
1.57336 3.74723 12.9113
1.74893 5.92332 19.6614
1.65325 4.17034 13.2722
1.6719 5.4751 13.1325
1.45012 4.48386 17.0425
1.68224 4.6575 21.3439
2.29383 6.1259 15.7292
1.52919 4.90825 18.9064
1.49135 4.76985 23.6537
2.48545 6.33085 14.3056
1.22202 4.53658 19.0187
1.4702 5.72838 13.9436
1.42041 4.94831 22.6768
1.83831 5.0075 17.7829
1.39536 4.7713 23.2622
2.39822 6.55656 17.9784
1.58078 5.53556 22.5963
2.32811 6.30856 12.899
1.23888 3.53391 18.6701
2.16674 5.50945 17.9292
1.59604 5.98681 23.3731
2.09928 5.34189 24.1506
2.48654 6.70551 22.1793
1.86473 6.35294 19.7257
1.52257 5.72568 22.2984
2.25116 6.35371 19.282
1.85473 3.41149 13.7551
1.55179 4.71267 17.1711
1.82843 5.18644 16.3425
1.5397 3.65185 10.8292
1.26495 4.70572 23.9456
2.65949 6.05814 21.0203
1.81029 5.59128 17.0073
2.06826 6.44266 21.0445
1.71867 5.82602 23.8174
2.08636 5.81907 22.8977
1.89833 4.91463 22.0524
2.12683 8.09638 26.2885
2.52113 6.62886 24.1087
2.42414 8.29127 24.3844
2.32754 5.14987 17.7669
2.13474 4.88954 21.2145
2.21913 4.32369 14.3885
1.22294 6.20024 20.191
1.87421 3.31396 18.0179
1.7003 8.5548 24.5769
2.14763 2.90468 13.6822
1.80739 6.93018 19.8651
1.62822 4.42767 16.1626
1.34289 4.31143 16.2393
1.82601 6.27244 18.0918
1.50159 3.68186 15.692
1.78906 4.89666 24.2044
2.15947 4.81897 21.7513
2.12182 6.23814 20.7984
2.08169 6.11558 15.8702
1.53991 6.61255 23.1052
1.42547 4.54395 20.875
1.80064 3.9704 13.952
1.23858 3.9007 12.7551
1.3816 3.07631 11.6223
1.57461 2.74336 9.76711
1.25448 5.474 19.1318
1.3714 4.04003 14.6917
1.50399 5.12578 16.4932
1.48673 3.67991 15.7785
1.63324 4.39479 15.3011
1.56463 5.09832 21.5762
1.67135 3.57216 15.0848
1.78698 5.96861 14.5653
1.31778 4.92901 21.7488
1.92965 4.90047 21.1772
2.2668 5.52007 22.2127
2.06151 6.08364 16.9486
1.55371 2.92597 17.0711
1.87598 5.40577 15.7369
1.63179 6.53063 21.9917
1.4929 4.01074 10.6445
0.890025 4.13975 21.1252
1.72708 5.79318 20.6337
1.66926 3.40523 17.4103
1.88869 6.61639 21.6152
1.62428 6.34023 17.2763
1.50414 5.58038 21.6894
1.76077 5.3877 14.1558
1.17288 4.73763 24.3876
1.91768 4.75253 14.5779
1.26931 4.40924 22.7535
1.9766 4.05047 12.0151
1.20993 4.37303 21.3232
1.59788 5.28222 20.4132
1.97437 6.3748 23.7671
1.84509 4.50707 15.0083
1.95027 3.81191 16.5982
1.39326 5.39472 17.5874
1.9455 4.30733 14.5493
1.4953 4.4569 17.4627
1.63512 4.72119 16.9846
1.57454 4.56992 16.8919
1.50207 4.20168 16.987
1.71715 5.09974 18.134
1.45472 4.36654 20.6078
2.18957 4.69893 15.853
1.56083 5.05465 22.7428
2.4427 6.92197 22.9642
1.47348 5.87379 20.2034
1.54943 3.69492 19.3498
1.82139 4.72196 14.5534
1.32079 5.52969 18.5141
1.78076 4.28723 13.0195
1.39068 5.27775 20.8588
1.83472 5.36316 15.9835
1.37129 3.22602 13.6054
1.30294 4.99403 23.9891
2.56162 7.92481 26.0193
1.86047 5.15153 17.1201
1.53673 5.30639 20.2386
1.68411 5.31081 15.7153
1.03788 2.51915 17.4405
1.54901 3.71954 19.3553
1.96091 6.54271 21.4894
1.79603 5.81728 24.7918
2.23613 6.41669 21.5177
1.73944 4.81159 15.0013
1.1613 4.62041 21.3276
2.23435 5.09606 22.1966
2.33754 4.96798 13.6498
1.23275 2.81004 9.76303
1.10434 4.25846 14.2607
1.38107 3.76975 13.2376
0.838194 4.79774 19.3575
1.39867 3.54836 17.4458
1.64492 5.08612 19.2982
1.6646 5.5901 20.9
1.95011 4.45831 15.1925
1.29207 4.1918 20.5732
1.73136 4.24564 15.8113
1.24987 4.04485 14.4463
1.58721 4.32005 18.8186
1.81363 5.47078 18.8436
1.5173 4.4614 14.0257
1.54735 6.45167 25.779
1.97309 4.66754 19.0879
1.53982 5.36321 17.3925
1.19714 3.27659 15.9578
1.77831 5.11015 14.9162
1.19298 4.91226 16.8149
1.27156 4.29041 18.2706
1.42102 4.61117 18.9602
1.73753 5.55036 25.1638
1.95633 5.93413 19.364
1.39362 5.49277 24.9228
1.93038 4.20301 14.1409
1.45177 4.2063 22.167
1.98643 6.09221 19.1903
1.35233 4.2254 23.2566
1.87036 6.2414 20.8117
1.86319 5.8132 15.6921
1.60198 5.17111 15.3141
1.37993 3.89425 20.867
1.3106 4.66405 15.0192
1.32491 4.659 25.1222
1.78681 4.28984 20.1122
1.58519 7.57022 22.2895
1.94325 5.59341 16.9706
1.40995 3.55907 18.4818
1.77917 5.20761 15.807
1.20927 4.15716 16.8238
1.65847 5.20148 22.5763
1.48686 4.22012 18.0649
1.26093 5.26865 22.8418
2.49141 7.03605 27.4402
2.30748 5.06629 17.6006
1.77988 5.79698 19.1673
1.46081 4.2173 21.9691
1.45429 6.58615 23.8668
2.25513 5.63543 23.5308
1.88971 5.3486 15.5347
1.30618 5.28509 21.792
1.37333 4.56316 20.7653
1.84024 4.56217 13.594
1.03519 6.49624 25.8826
2.20056 4.83549 22.3497
1.72181 5.87458 23.6778
2.19083 6.06711 17.9822
1.65311 5.29314 14.8464
1.36638 5.96397 28.6995
2.14639 4.52961 20.734
1.44126 4.6573 17.9263
1.46757 4.41656 17.3272
1.56097 3.62463 16.861
1.62772 5.80565 20.5041
1.39614 3.82672 24.9518
2.35135 6.37572 18.6037
1.5192 4.78443 12.1339
1.29581 4.23039 23.0754
1.88999 5.40252 18.5014
1.69635 5.52498 20.7888
1.53531 4.30463 18.4201
1.44255 4.16821 17.6479
1.36087 4.87913 18.9859
1.80219 4.74432 24.4047
2.19478 6.66087 18.1271
1.31141 3.42464 17.0427
1.58745 5.19327 18.7805
1.42516 4.25147 20.1746
1.34063 3.96068 15.2237
1.36662 3.96308 21.6427
1.64368 5.78112 20.9684
2.01231 6.37735 21.3659
1.56785 6.31659 27.9283
2.64227 4.607 15.4469
1.59303 3.55829 13.6288
1.18358 5.0203 22.0195
1.84208 4.89358 23.548
1.85344 5.21465 15.6071
1.56737 4.64471 19.2171
1.45554 5.32256 26.0868
2.47928 6.6775 16.1225
1.35155 4.46256 22.8843
1.75658 5.152 25.5137
2.11231 6.56921 23.0894
2.02996 4.58811 24.7379
2.16 4.56323 19.0402
1.9223 5.00994 16.7275
1.57894 4.76995 17.7075
1.55597 5.44276 19.1818
1.52163 4.35044 15.62
0.987146 4.83411 15.6677
1.2353 3.14465 22.0186
1.99072 5.85893 15.2494
0.991659 5.32993 12.6765
1.12073 4.0311 21.5889
1.71772 5.72697 22.7302
1.47555 5.05415 25.6897
1.99527 4.58067 22.2226
1.87391 7.57413 22.4901
1.19953 5.07881 26.0887
2.0041 7.11007 18.4963
1.49473 4.35023 26.7717
2.31835 5.79031 19.1878
1.85167 6.585 24.0306
1.52798 4.55431 16.7751
1.40141 4.68383 18.6815
1.25739 4.41988 21.0266
2.11219 6.2668 20.081
1.16769 4.71669 13.7724
1.05183 3.93822 16.8463
1.26001 3.63517 21.9022
1.84432 4.63087 15.4972
1.28645 5.03969 24.4018
1.60298 6.4859 14.7937
1.47893 5.62936 33.396
2.51105 7.05348 20.8074
1.69684 4.96067 18.142
1.44463 4.91015 18.8376
1.75047 6.24845 32.1428
2.46474 4.6304 21.5027
2.00644 6.35771 21.19
1.77164 8.28145 28.9137
1.9046 4.48188 15.1631
1.23028 4.90751 21.5951
1.73044 5.05164 15.5136
1.21816 5.04795 22.3768
1.41619 4.36225 24.4129
1.82851 7.27006 25.032
2.10714 5.12571 17.8305
1.47291 4.19719 19.1482
1.62398 6.13345 21.5698
1.96123 4.41696 20.9216
1.55896 6.40762 25.5811
1.86117 6.76222 28.7396
2.06064 3.26634 12.9366
1.18892 5.34033 17.6765
1.56969 6.20734 23.5458
1.7992 4.77552 28.8332
1.78878 6.4932 19.098
1.21459 5.39793 24.0843
1.93638 6.69323 22.1661
1.76963 3.68464 21.845
1.86087 5.73669 16.3428
1.44529 4.44655 14.8356
1.6248 5.83347 27.3877
2.10544 4.54052 22.8055
1.76031 5.82141 22.9428
2.24877 5.99994 20.8785
1.76665 4.8196 18.7311
1.65273 6.49145 21.9576
1.67375 5.1497 23.9531
1.61147 4.71037 18.6375
1.36884 5.02543 21.1279
1.6754 7.26459 24.4123
2.14743 4.8487 22.8369
1.86036 5.88582 17.7627
0.973696 3.38202 18.5081
1.33506 3.07434 19.6152
1.97322 6.28749 21.1844
1.13711 6.37955 20.8746
1.55741 6.07234 21.9718
1.66356 5.06064 25.5882
2.32686 4.29617 24.3066
2.13762 6.20106 18.2592
1.51257 4.35319 25.6083
1.89137 6.09702 16.582
1.76266 5.06624 21.8545
1.45445 6.35771 22.0354
1.75015 5.24082 22.3009
1.72778 4.5357 16.723
1.76333 5.07752 25.4894
2.24828 6.33516 22.0348
1.78282 4.58362 15.4511
1.37489 6.18108 24.0927
1.52082 3.94638 15.861
1.34991 4.83923 22.887
1.56 6.39582 27.8175
2.11757 6.3943 24.774
1.70285 5.49555 20.8824
1.65248 6.02715 21.4335
1.70067 3.96269 16.1798
1.32547 4.94 17.3601
1.68027 4.25487 18.2957
1.5379 5.00392 14.5195
1.37718 4.23589 25.4888
1.94024 5.01105 15.9701
1.63916 6.49738 35.6998
2.35683 9.5797 41.8951
2.78555 9.14458 22.7089
1.95699 4.54241 16.7472
1.36884 0 0