# pn-170911/RbIIA-34-TWTF-1280-1959.psd
# Power spectrum* (dif=0,1,2) (really just |FT|^2)
# NOTE: only the first half! (symmetric)
# weeks: 1280-1959
# 8 clock-days, 1 excluded
# PSD: 1441
13683.7 0.049004 0.00563447
268767 2.01294 0.00531201
1.71498e+06 37.2275 0.00406247
142663 4.05424 0.0056884
141685 11.3495 0.00858801
61035.6 5.19916 0.00490485
30794 4.63836 0.00570086
19659.2 5.88792 0.00470486
24736.8 5.39436 0.00718218
21071.8 7.0203 0.0119138
9649.68 3.69789 0.00977247
13781.7 5.11806 0.00707686
4309.22 2.61917 0.00709459
3625.03 3.90829 0.00889947
7240.04 6.65611 0.0123368
3767.1 3.36188 0.00767922
2714 4.14657 0.00686723
3313.24 4.93497 0.0184763
4000 5.35171 0.0107221
2026.15 3.06234 0.0100763
2911.54 3.58938 0.0122549
3097.93 4.31285 0.00887517
3393.99 6.00516 0.0135382
2242.13 4.96647 0.0230916
2749.04 5.77419 0.0287543
1371.33 4.20734 0.0184916
2070.99 5.72299 0.0189828
1621.99 2.95999 0.0180154
1607.33 3.85131 0.0176105
1656.6 4.30884 0.0252398
1503.35 4.98502 0.0211385
2480.14 9.53661 0.053067
1471.72 6.45189 0.0399689
1240.58 4.79042 0.0264566
567.554 3.89896 0.0277084
687.774 4.18078 0.0331537
505.775 2.23451 0.0110127
1201.52 6.22419 0.0484434
701.728 4.27042 0.0379195
767.893 4.94855 0.0333145
797.704 4.40048 0.0367327
779.264 4.41751 0.0370969
1003.2 6.80752 0.0564601
717.122 4.14112 0.0360001
1107.13 8.26234 0.101089
809.471 7.34518 0.0945638
750.019 8.26737 0.0832243
341.058 3.35813 0.0351688
320.356 4.43387 0.0595961
741.706 6.27082 0.0647449
347.905 2.20413 0.0365989
265.099 1.93649 0.0358205
429.834 4.32668 0.0720537
699.488 7.05324 0.102295
359.863 4.08045 0.0605154
623.162 5.37134 0.0899589
221.11 2.94343 0.0541559
714.779 7.25741 0.113733
424.274 5.81095 0.0796452
285.226 3.19482 0.0539828
260.626 3.63563 0.0701026
270.079 7.22599 0.137761
377.034 5.71022 0.119833
360.495 4.88782 0.110406
264.644 4.32947 0.0847274
315.587 3.75358 0.0887342
472.002 9.17351 0.208974
291.883 4.93073 0.11306
340.388 6.68871 0.13966
230.929 6.43804 0.15236
285.864 3.61331 0.0984615
307.553 5.99458 0.12442
80.5307 1.28674 0.0328906
209.177 5.00939 0.116452
289.999 6.76632 0.201034
174.898 4.10097 0.115168
150.282 3.48682 0.110006
152.784 4.54371 0.132465
120.763 3.63252 0.0957853
168.059 2.91274 0.08589
228.144 5.23639 0.148794
141.484 5.56015 0.182718
402.362 9.23764 0.309279
318.379 8.7953 0.321008
256.373 7.03089 0.222327
118.954 2.53706 0.0865511
156.994 7.00714 0.24216
139.174 4.57411 0.218964
258.067 6.92023 0.227853
150.49 4.07471 0.169993
201.974 7.10947 0.282109
50.2506 2.86513 0.11329
133.413 3.90367 0.130784
158.864 4.37262 0.189631
174.111 6.56182 0.247862
142.112 4.7367 0.201726
215.802 6.98757 0.309278
74.2344 1.9563 0.106961
233.404 9.43289 0.449839
156.301 5.13719 0.237779
135.429 5.86149 0.289853
142.476 5.62686 0.290257
108.927 3.37291 0.182196
205.803 11.398 0.640398
186.163 5.83626 0.328732
66.7602 3.11812 0.19302
122.899 4.35733 0.199886
118.356 6.46108 0.36014
56.7753 3.10131 0.156078
131.539 10.4871 0.618388
128.338 5.52147 0.320231
90.8581 6.17196 0.363155
83.3464 5.26028 0.33024
100.658 3.19433 0.190273
108.112 6.34548 0.346817
71.9643 3.92635 0.250338
145.716 7.71536 0.492845
77.8445 4.35801 0.29788
98.1279 5.73356 0.355175
95.0408 5.50699 0.376824
48.6019 3.93069 0.273598
123.532 6.81144 0.493349
75.0625 4.95653 0.342794
113.923 7.0636 0.479736
80.9442 6.71017 0.497055
98.8362 5.04889 0.388404
129.325 8.69603 0.636989
58.2727 2.82286 0.25056
34.9063 1.9412 0.140458
71.4293 4.33584 0.351383
43.5657 3.4108 0.252706
50.425 4.33708 0.353381
95.1626 8.31633 0.651881
89.1615 6.30464 0.552064
48.8089 4.55893 0.405732
76.5323 4.27013 0.345344
48.55 4.43106 0.388273
122.382 9.60313 0.87454
58.6658 3.55317 0.318306
57.173 4.91535 0.470615
81.5285 6.54112 0.624729
68.1918 5.19183 0.547636
41.5208 4.48754 0.441937
83.8693 5.52499 0.543735
63.2443 5.30468 0.510031
67.4437 5.83626 0.550193
73.8168 5.68653 0.628613
37.9554 2.17559 0.236628
59.0349 6.56337 0.672902
41.2709 3.72396 0.401395
55.9112 4.99568 0.499195
114.362 9.36769 1.05138
63.1081 6.05271 0.684537
39.0047 4.95287 0.5335
38.8348 3.43655 0.424519
56.2769 4.38855 0.548561
81.4314 7.73147 0.882378
74.7279 7.33683 0.911083
53.6658 7.25079 0.901973
37.527 4.43508 0.478117
82.7153 8.00948 1.0875
76.1649 7.99731 0.995526
26.126 2.91641 0.372733
34.3028 4.50709 0.567897
57.8113 4.67897 0.59993
47.0356 5.11983 0.689026
81.4451 8.59065 1.16841
74.6021 6.304 0.760349
80.1865 7.41968 1.05817
46.0653 6.04269 0.773677
54.0709 5.62354 0.817376
80.4625 9.85444 1.40976
29.9877 3.68576 0.460018
30.8225 3.31297 0.460413
54.0699 6.93756 1.01984
43.8341 5.84962 0.834507
36.7012 3.6827 0.544416
11.5885 1.55192 0.246897
33.2672 4.99166 0.722884
45.295 7.29928 1.13657
50.795 6.00315 0.836955
48.9235 6.06387 1.01593
26.4421 5.27463 0.930753
44.3011 5.32427 0.713405
31.6595 5.46332 0.875098
15.9461 2.52838 0.476058
44.234 9.26329 1.55355
75.4347 12.3514 1.95772
39.965 6.31804 1.10936
39.1975 3.64339 0.552447
37.9283 6.99944 1.17911
26.6061 4.47991 0.737885
29.8549 5.66336 1.00902
46.8413 4.8789 0.836706
39.0725 5.45512 1.0251
34.6977 6.78502 1.19129
47.0549 4.50243 0.794964
33.4182 4.3325 0.863498
17.3539 3.06055 0.561161
32.7715 4.00103 0.792587
21.0019 5.77979 1.08718
43.7689 5.09728 0.946781
21.6138 4.30676 0.818011
31.7767 5.27508 0.941398
33.8654 4.92799 0.973465
22.8493 3.6954 0.887254
27.991 5.71884 1.09031
44.0939 6.76252 1.37605
23.0054 4.47124 0.81495
20.8784 4.76094 0.983251
33.2395 7.25443 1.40536
23.8729 6.57401 1.39476
11.7057 1.85368 0.414181
43.5495 6.99772 1.73585
33.0998 8.3475 1.57296
21.3852 4.6284 1.14803
15.7219 2.82976 0.606536
23.5745 4.5532 0.898129
39.7744 9.24826 2.05883
28.3486 6.85196 1.56474
41.5908 8.70183 1.94651
21.331 5.84623 1.34754
14.8042 2.92611 0.764175
24.4844 5.24822 1.07526
28.3183 5.17758 1.26343
21.8844 4.87074 1.23184
24.6691 7.59207 1.80826
15.1046 1.86193 0.497395
24.2889 5.20827 1.01311
34.5778 7.62455 1.85645
54.6981 8.85676 2.26641
27.2742 7.07424 1.8748
39.3074 7.90521 1.77015
23.2291 5.86041 1.44827
23.8517 6.16763 1.67247
14.2047 2.4464 0.504348
12.007 3.40905 1.03977
16.601 3.38886 1.06806
17.4928 3.28036 0.879394
29.8029 6.06467 1.31759
17.807 4.1167 1.13074
14.416 2.30267 0.558327
17.584 5.24428 1.40372
9.60957 4.79081 1.55052
39.5368 8.00896 1.97139
16.6309 4.45219 1.2383
20.2309 5.72063 1.73792
25.4024 4.35805 1.22779
25.2377 5.44396 1.47551
24.4368 6.98146 1.95551
25.8869 6.84114 2.18441
15.9873 4.06372 1.08217
12.1057 4.29473 1.37918
17.4144 4.28912 1.44924
35.6945 7.84779 2.04794
18.4462 4.26719 1.31043
19.4529 3.82048 1.13028
41.5861 8.02848 2.38914
9.72067 3.69823 1.2388
13.489 3.97016 1.44689
38.6235 11.2157 3.36772
28.2875 7.51761 2.46925
17.5204 5.8706 1.96744
17.159 4.57135 1.2582
16.435 5.06829 1.77676
19.3603 4.64579 1.45969
18.8974 4.24291 1.40232
21.9837 4.43506 1.55572
29.4707 7.99767 2.40664
25.4621 6.82733 2.51758
17.0331 5.90214 1.98176
14.1427 4.79463 1.73695
12.8825 3.67559 1.26723
21.1097 5.79227 1.88557
14.0027 3.24236 1.1151
32.1707 8.41526 2.77335
16.8717 6.38371 2.34841
12.7602 3.5197 1.47993
17.6135 4.16677 1.4078
34.1939 10.2018 3.9972
17.133 3.29145 1.22728
23.6018 6.92758 2.33096
8.86947 4.14127 1.46879
20.726 5.93262 2.12645
7.24809 2.4545 1.16549
25.1502 6.53017 2.30712
20.5108 6.31801 2.57465
12.0503 3.87035 1.7308
19.2271 6.93113 2.74296
12.6507 5.83433 2.12581
13.6321 3.68796 1.37325
15.1826 4.1085 1.67571
33.4577 9.63106 4.25439
15.9942 7.68397 2.87146
23.1068 7.3109 2.20772
21.0878 7.14134 2.90782
12.3368 4.43907 1.90583
20.6991 10.8658 4.3566
13.4512 6.49161 2.62544
12.5714 4.04412 1.8511
20.1706 7.50532 3.22547
24.2468 8.34681 3.37957
16.1392 4.55595 1.88698
30.0489 8.70116 3.44931
18.0475 7.02409 2.88512
7.30989 3.41759 1.61808
13.7604 5.49857 2.23274
13.1873 6.03184 2.69243
11.0054 2.42949 1.07066
11.5684 4.36644 2.05957
15.5302 5.23422 2.37746
10.2384 5.09341 2.13979
12.1923 3.82363 1.68569
12.9581 4.11543 1.66297
17.5594 6.51743 2.93362
9.2975 4.17523 2.03544
15.8632 7.37432 3.16452
17.7636 7.69093 3.73256
11.7667 3.35529 1.39111
17.8654 7.46989 3.85083
16.42 5.54461 2.47599
13.1488 5.22267 2.80963
10.6519 3.48102 2.11638
12.8207 5.55655 2.38842
14.8687 7.88328 3.74654
13.1587 4.99457 2.33232
21.0773 7.93998 4.07044
17.5979 8.64344 4.17374
12.1867 4.53812 2.42029
12.8927 5.71329 2.31455
10.9928 5.59955 2.79472
10.8169 5.22908 2.76496
14.2005 5.51748 2.45652
6.53448 4.26382 2.21758
9.39116 5.37048 2.89389
10.9474 4.98764 2.64657
14.3688 7.02797 3.6308
23.1245 13.296 7.30513
15.2587 7.12694 3.26086
10.3073 4.64136 2.22767
17.7795 7.91386 3.92294
5.99038 2.79802 1.55575
15.8374 6.89506 3.65098
11.2779 6.44825 3.68534
8.62661 4.79056 2.55269
3.30248 2.62375 1.34984
9.52326 4.68946 2.71957
18.3094 10.5008 5.65907
10.4485 5.39615 3.22894
17.4018 7.93786 4.26301
12.5916 5.76917 3.38112
6.41221 2.95086 1.73885
12.2345 4.37721 2.52258
18.513 7.62566 4.16804
20.2667 9.28057 5.0856
6.1444 3.12101 2.0639
15.2459 6.06194 3.64542
13.765 6.66445 3.33811
8.53415 4.17343 2.87375
6.72214 2.36269 1.48689
8.34532 5.68013 3.27771
8.12833 5.11958 2.50023
9.43617 4.96715 2.84779
10.9747 5.76791 3.5302
9.873 6.19857 3.85425
13.0666 9.97051 6.57047
9.74113 3.16184 1.72763
16.7754 6.71959 3.98973
6.33081 3.04262 2.38298
19.7592 8.45797 4.58764
6.41991 4.66212 3.25058
14.5997 8.67986 4.98002
7.18979 5.02518 3.52166
15.7906 6.54729 3.57789
8.65715 4.2591 2.59324
12.9864 6.87317 4.85976
7.91333 4.57822 3.37108
9.79605 5.35429 3.33635
5.73376 4.93975 3.04655
18.2053 8.52015 4.94123
8.09631 6.51492 3.7056
6.03058 4.26829 3.26933
12.8685 8.78721 5.72377
4.07059 4.28522 3.72165
10.3757 3.52375 2.03195
12.6118 4.5339 2.46081
7.42374 3.727 1.96149
6.85719 3.89043 2.41519
7.0865 3.72769 2.91949
12.7306 7.38699 5.20342
9.02282 4.15245 2.656
11.2796 8.11749 5.31369
14.2888 8.25246 5.60645
9.30734 6.05668 4.06963
8.99478 4.59666 3.18291
3.25544 2.55535 1.77097
6.43681 5.55708 4.20523
8.83737 4.80002 3.45844
11.1496 6.25876 3.93015
5.99661 4.78104 4.10734
6.89748 6.61675 4.70097
6.44849 4.19318 3.26431
7.40402 4.7444 3.67417
11.4815 7.56548 4.47248
6.25728 4.79467 3.97864
18.9466 10.3376 7.31088
7.17672 4.30555 2.68017
12.5811 9.82858 6.90652
6.8412 6.2738 5.7725
8.26766 3.88206 3.70686
6.67987 4.46282 3.61715
7.98185 3.52661 2.08755
8.60611 6.57618 5.10903
13.415 5.69189 4.59133
9.37372 6.52019 4.82632
9.17469 6.9787 4.56925
12.9281 9.66022 7.56824
9.0042 7.47242 7.0769
5.10054 3.11637 1.93308
9.68499 5.78694 4.99252
10.0386 5.21376 2.76653
7.75138 7.87282 6.1344
11.0531 7.84727 5.71797
5.92021 3.96967 3.51809
9.32385 6.22291 4.82017
7.67069 6.32143 5.1487
5.19625 3.87468 3.48034
7.65006 5.32223 4.55197
3.33427 1.97815 2.23035
11.4846 10.0429 7.49186
7.3807 3.22782 2.53509
3.05774 3.21423 3.7906
10.2902 6.57638 4.348
8.84204 6.23541 5.46764
6.2525 5.56456 3.67137
5.57724 4.15214 3.35908
2.68694 3.67591 3.52592
8.05343 6.38388 5.9225
9.10153 4.22994 2.93543
6.75417 4.82919 4.96869
13.934 9.24746 7.82574
11.3878 6.60354 5.35657
2.41781 2.29363 2.331
7.29651 5.88263 4.32447
8.23353 5.06777 3.54819
8.35055 7.58931 6.58379
9.51542 6.20883 6.45922
7.55289 5.6609 5.51609
9.10993 5.30816 4.59192
8.16317 5.89935 5.41736
5.05256 4.19991 3.46466
5.50437 4.32054 4.79672
4.34712 1.95208 1.4214
7.76219 8.31271 6.87097
8.76114 6.23627 5.80124
7.00503 5.00178 4.44546
6.15759 4.30994 4.867
7.27303 4.3864 4.07348
9.71599 6.15957 4.89145
9.0377 7.19335 7.77101
5.81689 3.66495 3.09153
2.89386 2.96875 2.71841
6.29856 4.70857 5.16351
6.86163 5.12033 4.20453
7.73556 6.27577 6.46437
11.571 7.96405 7.00293
6.32869 4.58346 4.44373
4.91554 4.34169 4.42834
5.01968 4.14154 3.22779
4.8868 6.25437 6.10444
10.4757 5.71594 5.23906
8.55372 5.99438 6.17119
10.6172 10.197 11.9048
8.18902 5.84352 3.9989
10.8281 11.7572 11.8832
5.93162 4.73255 4.34216
6.26187 4.8857 5.81249
8.68471 8.9263 9.03292
10.3976 10.9421 9.18883
6.15352 7.13706 7.36202
6.42095 6.67752 7.8182
6.59118 6.99506 6.32967
6.10238 3.76908 3.44074
3.85597 4.20897 4.76538
6.84616 5.09593 4.96543
6.14144 5.71782 4.75573
3.42878 3.55861 3.92323
3.12106 5.34051 5.65226
2.96346 3.66638 5.1473
9.10069 7.37754 6.62163
7.03699 7.56375 8.62586
10.1441 6.04065 4.65118
6.68986 6.30449 6.45224
7.94145 7.04017 7.35832
5.49031 5.93013 6.8683
5.65918 4.43831 6.54888
6.33498 6.2379 6.62911
4.99518 4.16265 3.55187
4.22474 4.5434 5.75441
6.37995 6.89655 5.7348
2.96106 3.47631 4.90224
10.0944 9.79786 8.74776
3.83516 3.61048 4.04632
2.74497 3.78151 5.15295
6.73006 5.03092 5.84154
7.14021 5.66325 4.46939
3.03695 2.4868 2.80492
3.70494 3.31219 3.39581
5.03154 4.7386 4.52196
6.80597 9.07817 10.0917
3.10676 1.58141 3.25255
10.638 9.95731 9.76665
3.78391 5.40788 6.0489
7.64562 7.92112 8.95506
4.83548 4.96513 6.69442
7.72329 5.22592 5.55589
6.39493 6.44892 6.91547
4.64804 6.17496 7.71718
4.38604 3.98106 4.3911
4.7017 3.88235 5.02793
6.95074 7.05082 7.5062
6.99381 5.80471 5.82346
5.77849 7.2197 8.34164
6.92518 6.45017 7.19891
4.56028 4.56275 5.51039
6.61126 7.27443 7.80395
3.36321 5.28647 8.81938
9.22435 4.87872 3.49282
3.41901 4.09627 5.45667
5.78429 6.88545 9.56727
5.26995 3.71878 3.36592
5.4371 5.9861 6.89088
4.10322 4.37703 3.90253
2.13617 3.22761 5.42856
7.52227 8.75684 10.5245
7.66163 8.44577 9.47654
7.7033 6.28582 8.35934
4.99596 3.66579 3.3188
6.61769 5.34369 4.66424
4.46696 5.89586 8.13263
6.96793 8.18993 11.4654
5.34211 5.49866 7.382
5.30488 6.13134 7.57043
6.54043 4.77454 4.16445
4.24344 4.99374 6.48592
5.36287 5.33783 6.87504
2.7671 3.36558 5.37274
2.91942 4.03934 7.39352
3.86691 3.42018 4.37906
7.92526 6.99099 7.7147
4.51748 5.02309 6.53675
2.50238 3.04994 5.95686
5.88305 5.25129 6.79626
4.97984 6.76275 6.56137
4.08713 4.26679 5.63879
4.29383 4.68889 6.77856
3.65414 2.83839 5.21196
6.38734 5.75121 6.99402
7.16902 7.6551 8.1041
5.82527 6.37178 7.35334
5.3452 9.0496 15.4426
6.56514 7.34468 9.39049
3.06715 3.02293 3.21295
2.59163 3.33904 3.84243
2.48572 2.55297 3.17575
3.89254 5.5822 7.1785
4.81183 5.52263 7.99801
6.03466 7.9133 13.819
5.36542 5.47948 6.52419
4.30554 5.04768 6.94937
3.71708 5.4733 5.84686
3.216 6.38117 7.63648
3.13174 5.37755 7.93656
5.15611 6.28421 7.21934
2.8976 4.54243 7.13872
3.22331 3.89098 5.5586
4.56021 5.68419 9.93041
5.88027 6.13063 7.45475
3.57598 4.29751 7.42084
5.26319 3.82049 3.32227
1.67748 2.17117 4.06614
6.55442 6.77075 7.90074
3.18196 4.63033 9.0233
4.14495 3.24121 4.53942
6.41934 7.9129 9.56081
3.88543 3.6613 3.54149
2.49658 3.32235 4.90363
4.02761 6.07377 8.21061
1.93296 2.4919 3.03931
1.39847 3.28069 4.84765
3.29628 4.1611 5.72601
7.68226 11.5689 15.2043
3.86212 5.70058 8.88047
2.20255 2.04646 4.1016
1.85865 1.92854 4.34624
5.58992 5.53213 6.88597
5.84984 8.77906 11.5407
4.85095 6.40909 9.5907
3.16239 4.89168 9.45594
6.39679 8.43789 9.95567
4.97159 7.13442 9.63796
6.15883 6.87835 10.1204
6.55196 8.65175 13.2026
5.4802 6.93206 9.52367
1.39001 5.22268 12.2886
6.41001 6.37363 6.99932
2.89406 5.38734 9.41652
5.31918 5.46147 9.14516
6.64123 6.46664 9.64379
6.42704 8.11998 11.62
4.14916 4.82741 7.32538
4.31735 8.3131 9.47704
4.09598 6.24601 9.26155
2.64447 4.27321 6.49385
2.91604 5.02619 10.4282
4.63726 6.00139 8.97363
4.05008 3.7917 5.23514
5.24245 8.79641 15.7435
4.55501 6.64374 8.9368
3.98719 4.97213 12.1714
8.33653 7.82215 8.61337
2.4392 3.23052 4.73649
2.9964 3.38391 6.00134
2.94612 3.55465 6.65168
4.43322 7.49406 9.93443
4.25548 6.69366 10.9962
5.20334 6.05166 8.56658
2.42893 4.53722 7.93223
4.53252 5.27809 8.72176
4.6438 5.468 8.8642
3.66662 4.8509 8.81886
4.66105 7.91417 16.8421
5.12092 7.55147 8.38641
1.2207 1.92431 5.23637
3.70738 6.87528 9.26846
4.64987 9.8273 15.1992
3.4988 6.07561 11.3254
3.46703 6.20637 9.182
3.71953 8.38034 14.0052
3.62388 3.8989 7.60769
6.55667 9.56201 12.5891
3.48099 4.79978 9.61805
5.62515 5.9158 10.0659
3.74585 5.02318 8.75132
7.1737 11.8562 20.8615
5.32517 6.8838 10.9988
3.37517 5.88883 8.89567
4.27815 6.77529 10.8124
4.22394 7.8127 15.5728
5.56036 7.63888 10.4148
3.4539 5.07687 7.79213
4.22306 7.20017 12.5464
2.95645 4.15078 7.07125
3.19648 7.74658 12.9283
3.06813 4.26203 7.25472
2.36906 3.27727 8.19047
3.64949 5.21255 9.50725
4.79275 5.36717 5.52259
2.46806 5.02295 7.74384
1.68558 2.32892 5.61491
2.45543 1.73503 3.55742
3.68924 3.76231 7.46912
4.67722 6.21513 9.69961
4.05416 8.07658 12.1177
3.66849 3.15561 6.7269
4.30677 5.57309 6.0339
3.42478 7.88781 18.4573
4.2589 4.10889 7.33725
2.55271 6.44669 13.5684
6.8276 6.62459 9.90952
5.08184 9.62018 17.476
5.91146 8.94678 13.632
3.87813 5.06688 9.11853
3.7645 7.26779 12.4124
4.09719 6.30429 11.4042
3.53296 3.75978 4.36841
1.61343 4.79157 10.6775
3.8468 7.22885 13.6638
7.10578 10.608 18.1998
3.76239 9.31423 18.205
3.59142 4.97705 9.51233
2.89414 5.43094 17.0853
8.61054 8.21405 8.04172
2.5659 3.14596 9.02583
6.62201 9.42507 14.3718
2.65223 5.31696 9.77269
1.19749 2.96425 7.50578
5.46529 7.96557 15.4334
3.33119 5.72471 10.6512
3.03619 4.58467 8.9894
4.30183 6.37174 12.9677
2.68393 4.55405 10.9413
5.34881 7.75503 11.4729
3.713 7.13028 10.8458
3.8478 7.95137 14.3963
2.59394 5.27055 10.4664
5.11537 10.6559 19.5189
3.29314 6.44285 14.7208
3.69391 5.74181 9.31949
3.81652 6.35133 11.4039
2.57349 4.01974 7.0334
1.88907 6.24427 17.7488
4.86672 6.94691 11.2675
4.83016 10.1948 16.9506
4.08675 4.95823 10.1251
5.67959 6.94767 10.8506
3.76481 5.20328 10.1373
2.35237 3.86281 10.8701
3.59651 4.69732 6.69103
2.82039 6.14549 9.51495
3.0118 10.8517 23.1434
3.7268 4.31929 8.42146
2.54143 3.51354 4.65418
3.21057 7.36737 13.0211
3.53721 9.53053 17.2752
2.26631 5.60018 19.7734
6.4263 9.44504 13.9987
2.96136 4.87294 12.5961
4.08269 7.97792 21.759
6.23207 8.72018 11.3401
2.84447 6.45004 14.5182
4.09235 8.84345 21.1911
6.49459 7.50673 10.7368
2.95354 7.26845 13.5771
2.66679 5.64174 9.82751
3.40902 8.13136 18.985
2.30304 4.73928 13.7533
5.91478 6.68888 7.54421
2.22189 7.04213 16.1795
3.93184 6.7209 14.7321
3.11977 6.90318 13.9482
2.86265 4.98168 15.1965
4.80982 6.77638 13.4389
2.88654 6.8037 15.938
5.31656 8.08026 14.1851
3.30212 4.73033 7.67856
1.34988 3.92046 8.10598
1.5205 1.70193 3.90277
2.34828 4.5725 7.21588
1.2595 1.81293 4.20875
1.11242 5.34251 15.8265
3.66237 4.29644 7.81838
3.82895 6.37894 14.7423
3.45249 6.29062 12.0595
2.97642 5.15256 8.3432
1.97833 4.58658 8.86256
3.54686 6.63155 18.5298
4.24823 6.06599 9.86515
1.47769 2.78699 7.48296
4.39022 5.73131 12.4178
2.55326 5.54121 10.4775
3.81882 7.03385 15.1529
2.39548 4.80785 14.6398
4.98421 8.35208 14.6695
4.38737 4.97201 9.34812
3.87302 5.12448 8.90527
2.98971 3.85792 8.40302
2.75287 4.18252 10.8826
5.22461 9.26333 16.6272
2.63664 5.1243 10.3979
1.74437 5.6206 12.4898
1.73983 4.18593 15.9981
3.15468 5.53562 8.64945
2.07961 5.02229 7.60476
1.18331 4.8465 16.7718
4.80002 7.34374 11.542
1.949 4.96314 10.6815
2.39223 7.50122 17.2738
3.67765 4.262 8.65798
3.07887 7.12012 16.5694
2.87486 5.43808 13.9527
4.08849 6.25022 9.87508
1.92258 5.44057 14.9489
2.77567 5.16177 11.0191
1.06973 1.8553 4.31107
2.2553 4.02736 10.4443
3.10471 8.66387 19.9933
2.19375 5.44805 18.5628
3.69909 5.18312 11.926
3.85645 6.42336 10.7037
2.82625 8.67444 22.1388
5.86905 7.70835 13.4872
2.26499 5.10472 7.5077
1.72098 4.79799 16.2263
2.28355 4.64442 13.3011
4.1488 5.05902 9.74804
3.29184 8.26587 17.5449
2.35005 7.24559 20.8498
4.55896 5.83489 14.2642
3.67773 8.74512 12.9076
1.40548 4.92483 17.7004
4.7611 7.35891 18.307
3.93281 3.94995 4.66326
3.78937 7.63031 14.2816
1.53281 3.39707 10.1641
3.37151 7.16178 13.7607
2.67707 5.88729 17.1109
3.27105 10.9171 17.1968
2.67629 7.19264 25.6941
4.59751 4.64485 6.14148
1.76493 2.53381 10.4399
2.67673 5.54803 11.1942
4.05536 6.40991 15.0303
3.22078 7.14154 13.7325
1.53558 4.50531 14.0559
4.53205 7.40053 13.5259
1.7684 4.75805 13.5269
3.00538 7.86166 17.8858
2.78458 7.37809 20.4599
3.20059 5.26197 14.5086
4.37842 10.8405 16.0029
2.20288 8.38742 23.2257
4.13862 6.93559 22.6103
4.90136 7.29525 10.1817
1.32881 3.38239 16.037
4.33548 7.99054 15.548
3.35388 8.59121 15.917
2.5162 6.99629 24.4916
3.37119 8.45561 23.4084
4.8888 8.77049 17.0994
3.47642 5.99708 14.701
2.76474 5.44057 10.8876
2.12706 4.65733 11.2956
2.55887 5.38407 16.6433
2.98395 5.6108 14.3553
3.89842 9.15022 19.3834
3.13751 6.90534 14.9038
2.60602 5.56311 20.1503
4.10489 8.33258 16.1897
2.44929 5.66795 14.8026
3.13599 4.36375 5.68136
1.41809 2.67943 5.14704
2.16042 4.7977 12.0757
1.73368 7.47455 27.5269
4.40527 8.77792 19.2743
2.42614 5.07176 10.933
2.56301 6.27764 17.2412
3.17535 5.23931 11.3128
2.06781 6.54383 15.98
1.91804 4.41587 14.7028
2.63524 5.64997 12.4761
1.41639 4.45924 15.9373
3.74856 7.58591 17.2919
3.72063 6.5408 14.8539
2.73479 4.26287 8.89467
1.87653 4.13811 13.4364
3.43799 9.22679 27.0274
4.2451 6.76727 9.78124
1.27961 2.17848 4.42529
0.884591 3.59075 9.76802
1.7796 6.94533 29.8598
6.59645 9.38577 18.0815
3.56209 8.48619 18.1022
2.36614 5.58133 12.9126
2.26131 4.97804 8.65979
1.53367 5.58145 16.6908
2.397 6.64596 12.6747
1.02162 3.43364 16.8759
3.554 4.90349 9.53802
2.43014 5.90468 15.3321
3.19512 10.1239 25.4801
2.89247 8.61857 22.22
3.06552 8.52345 23.2722
2.81572 3.49863 10.3315
3.5452 5.9831 13.8213
2.564 4.27761 9.47458
2.05916 7.70855 23.1717
2.56978 5.356 15.7714
3.40796 9.2247 18.3364
2.03933 3.31024 7.59122
2.22044 8.0605 28.0878
2.80987 5.76849 16.6083
2.2103 2.90738 7.96307
2.94854 8.06554 18.2773
4.37866 9.91623 28.3649
2.54105 5.02625 13.572
2.78116 4.958 15.9004
3.85259 7.3295 17.602
4.54096 11.2336 24.4493
2.3061 3.52768 10.9445
2.62287 7.02056 16.1823
2.21505 6.19775 18.4974
2.44306 5.5789 15.2561
1.01023 4.06664 20.881
3.12865 7.36033 18.1558
3.52399 6.76577 17.5277
2.9806 7.14615 21.6431
3.6471 8.56811 23.0634
4.84539 11.4695 14.5815
2.14134 9.74014 32.401
3.13816 5.31347 16.0464
2.32793 6.83465 14.7997
2.26086 6.55008 17.9433
2.55476 9.21167 26.0765
2.73954 7.80055 24.5559
3.84303 4.62899 11.8326
2.35658 5.74955 17.4522
2.4644 2.75966 15.2842
3.02578 8.27431 14.4508
3.34413 8.11838 26.5117
2.77956 5.63805 18.9961
2.67519 5.28334 13.737
2.97737 8.07614 10.6101
1.04246 5.0434 15.9392
1.13352 3.00798 16.6238
4.05276 7.46932 23.7851
4.67561 9.2485 16.2845
2.1134 7.65321 25.391
4.0627 8.70661 23.2233
2.84069 4.45135 16.8597
2.29081 4.84902 10.1388
2.05451 7.70861 21.0546
0.967664 2.5401 12.721
1.71906 3.55073 13.1409
2.67861 6.3496 17.3214
2.48741 8.86335 18.3064
1.87632 5.30777 16.0461
1.56255 4.04132 17.8281
2.8364 7.47791 22.3967
1.73522 4.78631 29.3353
6.29382 14.1715 22.8525
3.39878 8.61844 26.6061
2.5332 4.51063 10.5542
1.8344 6.33559 15.7659
1.39308 4.09534 11.8141
2.58943 4.16356 9.9919
1.30074 4.12559 15.3092
2.18852 5.06636 13.4383
3.74555 8.98242 23.7515
1.50625 3.42502 12.8778
2.56675 6.82733 20.1477
2.92906 7.72768 17.0112
2.04434 4.88394 13.8012
1.6929 6.09146 22.3524
3.3027 6.61319 16.9557
1.55109 4.34339 14.5619
1.58739 3.52283 7.60036
1.25717 4.18721 7.47507
1.97599 6.35472 26.037
2.43379 6.53357 18.9166
2.90967 8.30369 17.1019
1.83425 1.94777 7.20901
1.59499 4.33748 12.5981
0.950108 3.25639 17.0336
3.42623 9.85037 18.9242
2.22986 7.32957 24.8358
3.30126 7.17363 13.3151
1.60421 3.55446 23.1409
3.45644 7.60823 14.7949
1.42543 5.25839 16.5197
2.13269 3.02756 13.2897
2.23295 5.78075 18.1572
2.15839 7.58488 25.4699
3.6855 10.8697 28.0039
2.62503 6.91223 18.3977
2.45389 2.92977 11.8892
2.22859 5.0164 15.6516
3.49753 10.1809 22.4474
2.78989 5.23123 12.3616
1.66244 4.73018 21.2229
2.51627 4.426 6.51526
1.06947 4.32489 17.7483
2.98077 6.0898 15.1633
1.99092 5.43244 13.9835
2.84102 9.00389 24.6959
2.06245 5.40622 12.1741
1.6023 8.52982 28.0097
2.62111 5.70915 21.9009
1.7735 3.54999 9.12817
1.41714 2.53156 7.07875
1.47278 5.41663 16.2305
1.90907 3.42416 9.4967
1.16375 4.41498 18.7382
3.89018 8.76382 21.9546
2.00159 8.57526 23.3738
1.86706 4.63359 18.8053
2.16975 5.3566 26.8582
3.45333 7.99167 18.7015
2.73635 4.93165 20.7398
3.69064 8.76937 34.3219
4.48813 10.2772 9.80875
1.20484 6.67701 20.1105
1.79709 2.85074 10.1696
1.65273 3.97087 10.2235
1.34712 4.07941 15.1601
1.71566 5.69064 20.5054
2.17195 3.36441 17.7437
3.08816 8.16378 18.0099
1.13123 4.25622 15.813
2.43271 4.49027 11.6174
1.71583 4.64154 14.6662
1.91599 4.97401 9.1823
1.08584 3.78318 12.7329
1.59309 3.08086 8.0252
0.954621 5.90312 25.9423
3.32462 5.28606 15.0213
2.41241 11.0299 35.9465
2.23839 4.304 21.4327
1.94748 6.22743 17.0525
2.53242 7.69768 18.3587
1.67677 5.16714 16.5277
1.24179 4.28779 24.102
3.49975 9.57117 28.6669
3.39397 8.63059 26.8502
2.53448 5.03748 12.1107
2.19402 9.61378 31.8794
3.10229 6.4487 18.6526
1.47076 6.5533 27.1986
2.37799 4.75019 16.1508
2.28344 8.4317 21.1444
2.12307 4.33857 23.7445
2.47581 4.63431 9.98336
1.66182 7.95834 19.7206
2.10549 6.60185 27.3537
2.6731 5.53269 10.8807
1.5141 7.33254 33.819
2.65292 5.54472 18.5157
2.95471 5.80443 15.179
1.71953 5.30548 21.1231
2.19865 7.4416 21.0864
2.97694 10.4019 36.1148
2.76233 5.0014 14.4296
2.14603 12.7977 43.1985
4.54077 11.9608 35.8075
4.22254 10.8677 30.8042
1.48558 5.30698 16.6894
2.04073 5.01992 18.0138
2.51075 9.3313 23.4741
2.80853 8.29179 23.1333
1.59993 4.73498 20.9307
2.06545 6.92372 20.7852
1.71557 6.83371 31.701
3.19539 10.7435 33.2777
3.39622 6.51318 18.2635
1.97234 7.03187 34.7645
2.88534 7.14885 20.5413
2.67194 4.8218 11.9253
2.09219 4.56229 9.76923
1.97197 5.76167 17.1869
2.03725 5.86532 26.5009
2.67458 6.40997 11.4274
1.30023 3.38445 11.4644
0.610249 3.27649 26.9488
3.96023 12.7054 25.6482
2.14843 5.90406 25.5025
2.87703 10.3129 24.8235
1.51684 4.65262 32.8054
3.09868 7.10653 13.1635
1.71794 7.81334 25.2035
2.264 10.2895 30.2822
2.91247 3.89208 15.8561
2.39171 9.85063 32.7637
3.16378 6.82966 23.7064
2.43997 7.41152 20.0085
2.24427 7.815 21.6528
2.01353 4.30362 10.3294
1.71318 3.32058 13.5546
1.60498 3.91729 13.9098
1.79308 6.68704 19.7404
2.30175 4.10177 14.741
1.08348 5.41638 15.3867
1.6164 2.22976 11.8415
1.7973 8.19167 30.0713
3.97015 6.98243 20.6291
2.09051 4.91451 13.9107
1.62265 5.04109 14.7245
0.975466 3.88367 16.0192
1.94326 5.24129 10.9144
1.56745 9.46632 29.5668
2.02852 5.87558 26.7177
2.67948 5.77611 30.932
2.33454 7.46185 27.1443
3.20204 7.31766 22.4226
1.85888 7.55279 15.9219
1.60562 2.96552 14.4098
1.96542 8.6124 27.0383
2.15274 6.47803 19.3151
1.7669 4.67805 15.133
1.79989 4.16052 30.273
3.70253 8.49427 35.4165
3.73461 8.25028 11.5358
1.73826 10.1602 33.4225
2.47137 4.37269 16.1878
1.51051 4.02617 23.2598
3.09061 6.275 12.2325
0.829002 4.02174 24.6152
3.10147 7.31657 17.9311
1.92049 7.88838 24.3347
1.93544 8.11656 19.1524
0.87801 4.69692 33.2975
3.12389 8.29001 17.5829
1.43998 3.10892 23.935
2.71857 9.51781 31.8971
3.33637 5.35459 16.5946
2.264 12.1849 33.0088
2.36622 7.1747 26.7657
2.88446 11.9072 44.8096
3.36733 6.10079 25.8807
2.81697 3.72676 19.005
3.21665 8.63548 18.0189
2.2626 8.36252 18.3265
1.22256 3.70132 10.9734
1.41227 9.07099 30.7435
1.74954 3.97418 18.3606
1.972 7.41903 27.2025
2.06762 5.51756 20.8368
2.39116 5.92413 18.1899
2.83196 8.88559 28.0527
1.81134 7.64584 28.8471
2.33296 9.63494 38.4544
3.14119 6.68907 12.3415
1.48394 8.27826 29.1384
2.08241 3.88322 22.2387
2.99471 7.49368 22.3923
2.29033 6.89416 25.4585
2.25242 6.44424 17.4641
1.75862 5.15303 17.0793
1.71977 5.21702 20.7289
0.984839 5.79005 26.7157
2.63757 2.6059 7.76406
1.19318 3.40546 22.0178
2.02827 6.32827 22.9161
1.96321 3.96611 7.66837
0.960322 5.06126 13.792
1.73065 4.41625 23.8551
1.78111 7.80369 28.3724
2.62415 3.9917 10.9856
1.21504 2.69103 11.7116
1.70285 8.22646 26.8827
1.8465 5.54732 13.2616
1.06444 4.57035 22.4211
2.3409 3.42316 13.5957
1.89297 5.24066 15.9312
2.02768 8.33816 38.2764
2.76029 5.30541 13.906
1.65085 6.02508 16.6371
2.21019 4.93032 23.4662
2.41562 5.97436 14.6775
1.03152 3.04478 24.3444
2.29684 7.06313 17.4574
1.79949 5.11174 14.6301
1.18549 6.15459 23.9287
1.63298 6.18072 16.6893
1.71835 8.17311 27.8837
1.77359 3.75705 17.2431
1.37623 2.53816 18.7284
1.76927 6.02137 32.6643
3.15814 9.97451 26.6102
2.53616 8.79411 19.1285
1.69313 7.96175 33.7277
2.913 4.1586 15.1685
2.04279 4.20922 17.1524
1.68609 5.12167 23.363
2.18868 8.1499 27.6397
2.48482 6.36107 15.3256
1.46863 5.25877 17.2183
1.14741 2.94052 20.0747
2.17007 8.29322 32.0579
3.00838 6.10961 17.6411
2.01926 7.17494 25.4048
1.76932 5.07148 26.4279
2.61261 5.56535 22.805
3.33145 10.5223 16.4502
1.08128 4.02484 13.0675
0.957006 7.61684 36.9279
2.69137 6.55131 15.7896
1.10406 3.78838 13.4987
0.869983 5.13167 21.9251
2.71031 7.36686 17.802
0.657303 4.63341 34.1567
2.39599 3.02013 12.9702
1.2095 2.05816 17.4791
1.69036 5.44699 25.3214
2.96315 7.39798 27.6674
2.62082 10.3474 27.8558
2.11453 6.64664 23.3468
2.08132 7.66345 19.0847
1.55106 3.06095 15.6118
2.39155 6.43357 16.434
1.19645 6.79279 33.9938
1.65782 5.67015 22.7981
2.32982 4.63281 14.2985
1.5441 9.94211 47.2617
3.31481 7.99192 17.8062
1.37246 6.4564 35.9289
2.99333 5.11653 26.2397
2.93804 8.64442 17.2423
1.40112 8.42427 28.0048
2.15721 5.79287 14.9913
0.908608 4.35978 26.7505
1.87841 6.46911 21.8158
1.80092 5.54328 18.756
2.03101 6.62949 25.4807
2.34389 4.5464 20.6118
2.40009 5.21053 10.8567
1.33816 3.67238 21.364
1.9447 5.09331 16.9251
1.76297 6.20962 10.1917
0.920572 4.30247 14.6424
1.35626 4.91749 14.9964
1.47209 7.87241 23.8646
1.59908 4.52005 23.5393
1.46278 4.40258 14.9513
1.80295 3.07106 12.282
1.55819 6.49171 33.2815
2.97851 5.24449 13.7206
1.21796 5.16615 20.8798
1.71143 8.47514 31.1271
2.17497 4.98237 25.142
2.26603 7.18139 23.8409
2.02229 4.6485 15.1808
1.7952 6.41744 14.6246
0.914467 3.20379 21.9853
2.74602 9.86846 35.1576
2.71666 5.25878 17.8821
1.89642 9.56497 32.8629
1.77614 3.29584 15.5035
1.19114 5.33561 20.4852
1.62917 4.00285 19.7516
2.10274 6.8851 34.2187
2.85261 9.40781 24.2777
1.50701 6.64239 36.158
2.82913 8.09464 35.3626
2.65844 7.63761 21.0709
2.3446 6.60987 28.3223
2.44631 11.9073 31.842
2.71642 5.95845 16.1725
1.26271 5.97245 31.5578
2.57294 8.72765 25.9681
1.43044 6.13396 34.0934
2.36719 7.03136 28.303
2.34535 4.61176 23.1787
1.25843 4.10313 12.1843
1.29162 7.378 34.3046
2.19976 9.07129 29.5203
2.73275 5.88792 12.7584
0.944184 6.09356 29.6486
1.86387 6.22319 23.6742
1.43054 4.67935 23.6131
1.87203 7.52785 28.4933
1.98351 5.35991 24.1422
1.64455 5.55007 24.7229
2.33609 12.1449 24.4606
1.40788 4.24914 24.9038
2.76695 6.73 33.5617
2.10237 7.24301 15.351
1.26015 5.75951 32.9186
3.37174 6.55228 31.2132
3.08116 9.40465 22.1686
1.36481 4.5486 17.5059
1.79963 6.72543 23.349
1.90237 4.03984 15.7109
1.72013 6.20835 26.6969
1.93107 5.85353 18.7042
0.889448 3.43923 25.2853
1.08837 4.30579 21.217
2.00138 5.34991 10.0711
1.10035 8.90713 30.9845
1.97829 4.09989 12.8396
0.678997 3.98083 25.5123
2.22817 5.89582 17.401
0.797385 3.47308 28.4794
1.8365 5.38515 21.3879
1.47958 5.78864 14.6791
1.11497 4.84177 14.9539
1.08168 6.89909 40.1896
3.4673 10.1661 33.8776
2.34528 9.0368 25.6126
2.5432 5.93899 24.591
2.34412 6.28902 33.0504
2.05303 6.72627 24.6179
2.42321 12.5977 36.3705
2.28094 3.5207 12.517
0.971311 4.60429 21.4401
1.56599 5.06298 9.66182
0.609708 6.77614 24.5959
1.42603 3.67033 20.436
1.69337 6.75487 21.8336
1.86445 2.09691 16.3671
1.72924 7.86174 16.662
1.28438 5.24906 13.4136
0.884392 5.3479 22.9302
1.8536 5.56567 41.4795
3.60417 4.09426 12.2813
1.35134 5.9949 29.2233
1.86188 7.51066 19.7366
1.45618 5.47969 26.8761
1.63346 6.25805 31.6472
2.13643 10.2165 28.8863
2.39209 7.85007 51.8997
4.04538 11.856 24.7238
1.27402 6.11167 22.2553
1.95421 8.66912 26.9791
1.26412 4.0828 48.4707
2.8543 7.11946 20.803
1.68626 5.24161 19.3774
1.75319 6.77533 15.9024
1.51275 4.166 18.4308
1.20901 7.84044 36.2677
2.31505 8.34913 39.2754
2.87626 9.28348 33.3534
2.71146 8.34882 24.1325
1.48233 8.55693 18.8347
1.70142 8.83478 40.5021
3.68561 4.41839 20.2332
1.97987 4.55371 19.7755
1.31279 4.3959 34.6505
2.42981 12.3226 25.8789
2.17097 6.08629 36.5772
2.85042 11.2793 31.8536
2.33206 7.16352 40.869
2.60314 8.78061 22.8912
2.46226 7.10364 27.816
2.46541 6.38561 16.9711
1.1459 5.07401 25.3464
1.8397 3.40289 24.5391
1.91503 4.27824 16.5338
1.633 8.76419 24.1147
0.951435 5.21366 36.8263
2.46659 7.56347 20.2129
1.64458 9.12024 27.8617
2.19474 6.02601 27.7597
2.15555 5.51376 30.2186
2.62434 7.82476 34.7999
2.05513 6.53085 24.0846
1.91099 7.35833 30.7076
2.09829 6.68332 14.6838
0.597834 3.00937 9.78901
1.02817 7.1732 33.4384
2.39873 5.61128 23.7487
2.18043 6.33207 26.1231
1.94658 4.97243 13.3959
1.71059 6.57857 25.0238
1.6541 5.69914 27.2728
2.38585 7.21322 14.4659
0.470752 3.76268 18.9707
1.57145 6.40367 24.447
1.71392 4.29321 31.6727
2.02336 7.567 26.9189
1.62817 7.27037 14.1987
1.08381 5.29105 24.1179
1.84427 7.23201 36.117
3.03869 5.17682 32.1618
2.30122 5.43455 27.8644
2.25647 11.1578 25.4693
1.59448 8.18067 25.2873
1.79269 2.72662 14.456
1.33614 3.93047 25.6267
1.59731 9.20693 33.0613
2.57652 3.38191 20.8654
1.94249 5.1816 10.2849
1.30845 3.2567 23.152
1.7801 8.03922 24.2563
1.52968 8.42221 21.8391
1.5316 4.04993 34.2185
2.67838 8.53891 26.0032
2.29177 7.16443 23.6791
2.02595 5.67696 28.6276
2.52369 10.3528 36.225
2.57757 7.87375 27.9699
1.53266 4.74939 17.5813
1.45411 4.06978 14.0959
0.757831 3.10559 21.6107
1.44355 5.61337 26.0144
1.94329 4.35985 9.33566
0.896475 4.06391 20.0501
1.31336 9.33969 33.3033
2.76433 6.63981 23.2555
2.088 4.03199 30.3435
1.97716 11.3024 27.8479
2.64945 4.03091 13.1638
0.779248 4.80163 14.2106
1.32357 3.77611 16.6588
0.714904 7.85584 26.1578
2.54621 4.47345 24.4658
1.81117 3.55307 31.621
2.914 8.863 13.059
0.510346 7.20763 43.1563
3.20876 9.78354 37.4906
3.17005 4.50733 23.5673
2.18012 9.37606 26.8847
1.92883 3.65073 16.5777
1.62769 6.95137 26.8198
1.56219 5.85828 32.2195
2.36429 6.94108 35.1114
2.86467 8.45936 32.7092
2.09699 6.50119 26.3563
2.54136 5.60729 27.9038
2.39973 6.46945 24.0041
1.51409 6.69089 26.0057
2.63828 8.2103 30.6261
2.11097 3.6172 19.1431
1.90487 10.2621 27.3282
1.745 6.07437 19.8678
1.75115 6.92549 34.4389
1.52498 4.85922 32.7667
2.19795 7.86294 15.8948
1.62617 5.28003 33.8189
2.08344 7.99922 33.0028
2.86645 6.82256 15.0164
1.51205 7.82291 16.9655
1.46278 4.41603 16.74
1.23625 7.82303 31.0356
2.70901 5.17 14.6579
1.32267 4.64293 24.8175
2.26723 7.21674 29.5403
1.79112 7.35394 28.3021
1.62559 4.87558 18.7727
1.52359 6.57436 23.6608
2.17116 3.34888 18.7923
1.52471 5.04519 20.9081
1.69151 2.6747 9.63465
1.02814 8.14279 25.4897
2.33113 4.3694 31.3126
2.26008 5.45967 29.8017
2.12547 7.44534 28.2809
1.75873 4.91378 20.9718
2.26752 4.97119 29.7368
2.72516 12.1222 26.0052
1.30667 5.2766 12.9439
1.0758 1.13162 25.2006
1.86339 6.97781 19.9186
2.0031 4.01409 23.7052
2.2268 7.25798 28.1431
2.54218 5.10398 39.2837
2.37202 9.70577 21.4754
1.30471 6.13954 19.5656
1.43626 6.12319 41.0111
3.34808 9.80894 26.3989
1.42002 6.03717 18.8964
1.44221 3.97055 24.4538
2.36579 8.17503 19.5073
1.12737 4.84489 21.0887
2.10545 9.86583 30.8161
1.91022 4.46766 38.5574
2.83668 10.2699 36.691
2.6879 6.45864 15.3022
1.08285 8.47374 42.2228
3.20927 7.84884 20.6846
1.16516 2.60235 10.2531
1.14716 0 0