# pn-170911/RbIIA-av-RbIIF-1280-1959.psd
# Power spectrum* (dif=0,1,2) (really just |FT|^2)
# NOTE: only the first half! (symmetric)
# weeks: 1280-1959
# 5911 clock-days, 1586 excluded
# PSD: 1441
7635.18 0.431398 0.00774701
906217 18.8656 0.00498943
2.48436e+06 49.0509 0.00573107
449239 12.2417 0.00514914
269905 16.1497 0.00601722
123228 7.22447 0.00575876
80481.9 7.76244 0.00602654
52866.9 5.64792 0.00627699
41747.9 6.08499 0.00648842
31992.2 5.22575 0.00683747
24863.3 5.15969 0.00738367
20711.9 4.74879 0.00759163
17622.7 4.95285 0.00827532
14251.2 4.61943 0.00867895
12823.7 4.65583 0.00897778
10818.3 4.50987 0.00949583
9593.11 4.64237 0.0101762
8192.02 4.43847 0.0106449
7589.55 4.50061 0.0117872
6597.86 4.33544 0.011973
5961.73 4.45811 0.0133983
5422.36 4.36703 0.0140277
4893.2 4.35332 0.0153807
4448.82 4.18183 0.0155348
4122.22 4.12539 0.0164277
3788.91 4.29551 0.0172071
3483.77 4.18477 0.0183419
3197.59 4.01968 0.0189775
3008.54 4.22978 0.0203894
2809.29 4.30305 0.0221306
2606.28 4.09854 0.0227331
2444.26 4.11521 0.0237203
2286.86 4.12085 0.0253637
2145.04 4.19415 0.0269215
1989.2 3.96164 0.0264732
1918.2 4.15795 0.0289255
1795.4 4.13302 0.0307054
1714.75 4.20117 0.0333545
1610.47 4.04302 0.0331134
1545.63 4.10417 0.0347762
1488.48 4.1434 0.0368187
1378.46 4.04282 0.0373065
1318.03 4.06657 0.0382651
1274.48 4.14253 0.0411051
1198.4 3.964 0.0410538
1152.03 4.04914 0.0439527
1122.33 4.2212 0.0477233
1067.63 4.11899 0.0482807
1022.64 4.0754 0.0498632
981.511 4.1031 0.0515407
930.475 3.92665 0.0516283
893.53 3.93504 0.0534283
865.546 4.08113 0.0569363
839.317 4.01209 0.0588422
802.122 4.09913 0.0609154
779.586 4.20465 0.0653413
740.741 4.06569 0.0648486
729.655 4.09833 0.0677259
681.599 3.93271 0.0676346
679.714 4.16833 0.0737839
659.445 4.09758 0.0756058
637.112 4.10353 0.0776079
615.573 4.18368 0.0811471
578.621 3.95204 0.0786429
575.733 4.18505 0.0858314
552.8 4.17318 0.0895841
541 4.1019 0.0895589
520.329 4.14791 0.093117
508.069 4.08894 0.094996
488.797 4.13452 0.09876
483.115 4.08898 0.0995689
460.881 4.06749 0.102054
454.766 4.07009 0.10539
440.694 3.95267 0.103732
431.154 3.96619 0.10769
431.646 4.1076 0.113666
409.313 4.02764 0.114917
396.027 4.07974 0.118563
391.702 4.07342 0.123563
378.313 4.05567 0.123711
373.264 4.13751 0.130437
353.732 3.9717 0.127471
346.511 4.05379 0.133984
337.689 4.09531 0.138129
329.089 4.10365 0.143298
319.968 3.96615 0.139821
313.856 3.99465 0.144592
309.048 4.00666 0.148829
300.121 4.09724 0.153531
293.659 4.06005 0.154906
288.918 4.03098 0.160108
282.46 4.09041 0.162269
275.264 3.93572 0.163481
275.47 4.20704 0.175502
264.983 4.00465 0.17257
264.726 4.14219 0.180471
249.524 3.97608 0.179263
254.77 4.19543 0.188006
245.167 4.1134 0.190909
243.368 4.00912 0.188706
236.661 4.08556 0.198525
241.739 4.25333 0.207597
225.514 4.00695 0.19989
230.685 4.07356 0.208244
223.965 4.1646 0.216095
216.924 4.16596 0.220414
217.859 4.15666 0.225042
206.644 4.06775 0.223274
202.1 4.03024 0.22665
199.271 4.11189 0.233654
194.858 3.98037 0.231489
193.799 4.18922 0.250567
186.796 4.01818 0.241002
183.295 4.08644 0.25126
180.502 4.06193 0.254986
176.768 4.10746 0.264021
171.828 4.12285 0.267271
171.825 4.12494 0.269611
167.457 3.99775 0.267747
168.378 4.03768 0.275397
162.504 4.02467 0.278842
161.632 4.11099 0.289226
157.235 4.09827 0.293038
155.982 4.01595 0.291064
152.671 3.99943 0.29533
151.015 4.04507 0.305372
147.388 3.93573 0.296709
146.749 4.05544 0.315916
143.228 3.97044 0.311829
141.471 4.05543 0.323795
140.328 4.04687 0.32579
139.787 4.17575 0.343764
135.495 4.03527 0.335651
135.994 4.07611 0.343569
132.804 4.02283 0.342961
132.155 4.0913 0.357529
130.622 4.15779 0.366654
129.63 3.98143 0.357737
126.889 4.15927 0.377572
123.851 3.99356 0.369255
119.658 4.06108 0.379935
120.427 4.13291 0.391394
117.293 4.13171 0.395922
113.12 3.90995 0.38269
113.831 4.06965 0.40131
113.636 4.09364 0.414065
109.411 3.97835 0.404644
112.204 3.99173 0.411235
108.313 4.1594 0.436221
109.387 4.08454 0.43121
109.747 4.27012 0.455137
107.697 4.01442 0.433445
105.807 4.17165 0.459874
106.295 4.19992 0.469607
102.838 4.05737 0.457026
102.561 4.17184 0.473736
100.217 4.11298 0.476765
97.469 4.04756 0.472666
97.7028 4.18026 0.497166
94.4889 4.17313 0.501705
93.4135 4.14515 0.505036
92.5481 4.0757 0.501983
90.7654 4.21264 0.527123
90.0593 4.11851 0.518585
87.617 4.05554 0.51675
88.7493 3.99903 0.516346
86.9537 4.27351 0.555295
84.5463 3.98461 0.533109
84.6501 4.19104 0.560214
83.5962 4.11824 0.558755
83.9598 4.18137 0.570854
80.8621 4.14443 0.571542
79.6035 4.00738 0.564418
79.031 4.03019 0.572385
78.6243 4.0503 0.581214
77.6205 4.12223 0.596313
78.3164 4.14447 0.607646
77.1249 4.23076 0.625498
76.9853 4.1548 0.620322
75.5025 4.17592 0.636217
76.2497 4.14476 0.637037
74.5511 4.08437 0.631392
74.5164 4.0763 0.640011
74.4461 4.15518 0.650016
73.4578 4.09817 0.659985
74.681 4.26579 0.688832
70.9339 4.07357 0.661586
74.0569 4.26976 0.695973
69.4964 4.16005 0.690955
72.8062 4.23365 0.709925
66.7397 4.06141 0.693999
71.1198 4.13857 0.711127
64.9661 4.01613 0.698479
67.0328 4.00387 0.700342
64.4033 4.2092 0.744579
65.5574 4.31864 0.773858
61.6557 4.0887 0.73936
62.8137 4.16428 0.758967
61.4647 4.13125 0.7625
59.4864 3.98198 0.745671
59.5068 4.12764 0.780747
58.2752 4.05763 0.779605
58.0739 4.02477 0.770933
57.897 4.09605 0.794513
57.5175 4.15477 0.824143
56.6352 4.11293 0.815238
57.6428 4.23635 0.844274
56.8627 4.25951 0.853459
56.2686 4.23559 0.855527
54.5354 4.11092 0.844832
54.5082 4.07434 0.847083
53.8813 4.10503 0.859166
54.7087 4.21731 0.892983
52.0762 3.97182 0.847108
52.853 4.15721 0.899263
50.9542 4.15362 0.89829
51.9387 4.17047 0.911958
51.2308 4.16431 0.92006
50.3133 4.10508 0.916498
50.5007 4.22048 0.950436
49.2828 4.13646 0.941195
49.8193 4.17822 0.955523
49.1608 4.14247 0.95317
48.7927 4.22819 0.986455
48.2976 4.02335 0.941488
48.7764 4.28476 1.01559
47.7844 4.19359 0.997004
46.7248 4.21015 1.02088
46.902 4.11183 1.00081
46.7309 4.22762 1.03474
45.6389 4.17119 1.03565
44.892 4.18457 1.04064
44.4121 4.03732 1.01741
44.1724 4.09318 1.04745
43.8413 4.16595 1.06842
44.06 4.17565 1.08369
42.8811 4.08002 1.05666
43.0357 4.09604 1.08114
42.7647 4.11328 1.09023
42.4923 4.04963 1.08486
42.0039 4.15123 1.11628
41.9552 4.1521 1.13493
42.3307 4.27063 1.16331
41.9916 4.23733 1.16505
40.9702 4.17275 1.16919
40.9657 4.26864 1.18992
39.6526 4.11606 1.16553
39.1904 4.10264 1.17839
39.5463 4.24106 1.21847
40.1146 4.30163 1.24152
38.452 4.05285 1.18475
38.415 4.22734 1.24043
38.0556 4.11196 1.21145
38.0629 4.16927 1.24432
37.7776 4.29958 1.28785
37.8126 4.26727 1.28418
36.5185 4.05078 1.24532
36.1003 4.17164 1.28223
36.6375 4.22792 1.29743
35.9293 4.28069 1.33747
35.7644 4.21557 1.33582
35.9665 4.24435 1.32469
35.0034 4.20373 1.34869
35.2922 4.16722 1.33576
34.8702 4.23041 1.37478
35.1333 4.19777 1.36176
34.4018 4.21379 1.37863
34.5268 4.31607 1.43202
33.7823 4.29306 1.42063
33.495 4.10302 1.37962
33.5826 4.22898 1.42736
32.7297 4.20294 1.44108
33.4392 4.24687 1.44408
32.9515 4.22781 1.47543
32.499 4.09927 1.42511
32.4063 4.24336 1.48296
33.243 4.29032 1.50972
32.5785 4.15097 1.4779
33.561 4.30809 1.5287
33.1726 4.38324 1.56239
34.7586 4.32682 1.53303
32.0176 4.26508 1.55922
36.1533 4.31576 1.55232
31.5849 4.33498 1.59606
37.6822 4.33803 1.58424
31.4417 4.42104 1.66795
38.8774 4.53505 1.67033
31.1357 4.34694 1.64913
38.2656 4.38816 1.63188
30.821 4.47524 1.73748
36.1102 4.28484 1.64526
31.1816 4.35692 1.70706
34.1103 4.26516 1.65933
29.7269 4.20273 1.65532
31.136 4.28395 1.69377
29.0686 4.19816 1.68167
29.5939 4.36647 1.76245
28.6026 4.31011 1.76633
27.955 4.30593 1.75122
27.9682 4.20356 1.73258
27.1078 4.22272 1.76183
27.2827 4.22272 1.75523
26.8915 4.18912 1.75537
27.2658 4.41171 1.87469
26.8218 4.24537 1.80726
26.4302 4.24861 1.81668
26.9958 4.37688 1.88479
26.1868 4.15181 1.78961
25.6705 4.17268 1.82888
26.0596 4.19214 1.83971
25.2822 4.10677 1.80169
25.6094 4.27407 1.89194
25.1235 4.2145 1.87386
25.0612 4.27663 1.93801
25.3227 4.14875 1.89044
25.0462 4.25667 1.91218
24.7921 4.28166 1.96724
24.3606 4.24575 1.95926
24.1414 4.131 1.92887
24.5868 4.34025 2.02675
24.5933 4.21631 1.97751
24.8344 4.32787 2.03337
24.392 4.3395 2.05377
23.8118 4.26481 2.03642
23.5707 4.26992 2.05036
23.4666 4.25236 2.06802
23.8671 4.40131 2.1322
22.9607 4.20583 2.06759
22.9047 4.15268 2.0534
22.7795 4.23325 2.09723
22.8961 4.30921 2.14281
22.8385 4.28087 2.16048
22.6726 4.22882 2.12575
22.4394 4.30052 2.17133
22.3436 4.25847 2.17157
21.8834 4.22586 2.17559
22.1603 4.34223 2.2154
21.8106 4.19054 2.1597
21.6133 4.18306 2.17352
21.9132 4.36275 2.2884
21.4992 4.26543 2.25216
21.5867 4.28922 2.3042
21.1972 4.41214 2.31477
21.1982 4.29833 2.30789
21.0671 4.35453 2.35359
21.1258 4.31126 2.30189
20.9871 4.25692 2.32634
20.9213 4.24172 2.32495
20.7412 4.27148 2.35011
20.4488 4.3201 2.3837
20.7319 4.33857 2.4244
20.4497 4.32875 2.44211
20.6242 4.39434 2.46588
20.1892 4.31985 2.44876
20.0706 4.3692 2.48144
20.22 4.42694 2.53327
19.7921 4.33278 2.46854
19.9486 4.3124 2.50185
19.8605 4.32704 2.50471
19.8664 4.23582 2.48092
19.334 4.21498 2.48579
19.7532 4.36534 2.58928
19.5512 4.3052 2.51236
19.1818 4.21997 2.52328
19.3775 4.37269 2.62722
18.8924 4.28426 2.57378
19.4269 4.44823 2.68595
18.8727 4.42133 2.69182
18.7782 4.33547 2.62942
18.132 4.12092 2.55858
18.5111 4.31675 2.65049
18.2667 4.43343 2.80681
18.6609 4.37409 2.71024
18.2278 4.34458 2.71051
17.952 4.34661 2.756
17.9085 4.30568 2.76255
18.201 4.37439 2.77432
17.9545 4.29398 2.74725
17.6939 4.33681 2.80204
17.7225 4.38328 2.82453
17.6081 4.42347 2.86626
17.4374 4.2841 2.78442
17.2123 4.24121 2.79606
17.6837 4.45999 2.93325
17.0859 4.31401 2.85033
17.5938 4.22603 2.82008
17.3932 4.48687 2.98711
17.6341 4.36828 2.94106
17.416 4.33234 2.93683
17.876 4.6271 3.1499
17.8151 4.56983 3.13265
17.3135 4.37609 2.99705
17.8857 4.31621 2.96374
16.9075 4.35573 3.0167
17.4469 4.49226 3.1149
16.2179 4.29726 3.00016
17.2339 4.2783 2.9944
16.3792 4.36068 3.06534
16.8315 4.38774 3.12429
16.2276 4.42145 3.14854
16.3687 4.39038 3.14468
15.8327 4.23236 3.04637
15.9454 4.38079 3.17212
15.5729 4.32725 3.10462
15.7243 4.40783 3.20777
15.6316 4.42588 3.23522
15.6368 4.45651 3.30014
15.5141 4.4058 3.25186
15.0183 4.10908 3.06593
15.2916 4.42756 3.28309
15.5532 4.56077 3.40849
15.3604 4.47593 3.40567
15.419 4.52898 3.41241
15.1372 4.26378 3.2366
14.8636 4.38734 3.35985
15.1056 4.46015 3.39729
15.0425 4.48244 3.48704
15.1569 4.53091 3.49244
14.6396 4.45091 3.46961
15.0175 4.42884 3.44279
14.4915 4.37683 3.41401
14.9447 4.42356 3.46851
14.6635 4.5175 3.55065
14.7168 4.39195 3.50795
14.369 4.40596 3.52506
14.6057 4.43964 3.57939
14.4974 4.41988 3.55791
14.3158 4.47158 3.60079
14.4947 4.48631 3.64498
14.2231 4.4366 3.58825
14.1263 4.53997 3.7132
14.1844 4.53315 3.68231
14.1353 4.46975 3.71799
14.0056 4.37158 3.63876
13.8865 4.44304 3.69635
13.8983 4.44247 3.74191
13.9032 4.43094 3.73457
13.8686 4.32886 3.65761
13.8084 4.40983 3.68796
14.0353 4.54996 3.87489
13.7237 4.53275 3.83377
13.8639 4.46387 3.80289
13.4426 4.5523 3.94194
13.4197 4.4856 3.87515
13.1201 4.44368 3.86678
13.3685 4.42118 3.8294
13.3372 4.61094 4.02183
13.2126 4.43493 3.92364
13.3966 4.5823 3.98629
12.8778 4.47456 3.96164
13.1695 4.52883 4.05234
12.8055 4.42372 3.9421
13.1931 4.55506 4.10686
13.0517 4.40092 3.95482
12.9336 4.3377 3.95191
12.8511 4.50523 4.07378
12.8359 4.38927 4.01055
12.869 4.52307 4.11122
12.6998 4.48262 4.14823
12.7678 4.62834 4.24304
12.6178 4.5081 4.20801
12.3537 4.56175 4.22309
12.4096 4.53853 4.24297
12.3339 4.5397 4.2406
12.4277 4.43096 4.16341
12.3431 4.58217 4.34605
12.4692 4.5447 4.32104
12.2346 4.53427 4.31242
12.2689 4.41148 4.20931
12.1578 4.52907 4.37081
12.2917 4.54631 4.34227
12.252 4.60892 4.48228
12.1865 4.49863 4.43328
12.4131 4.56898 4.38992
12.0685 4.58406 4.446
12.0869 4.54798 4.52264
11.7915 4.56469 4.53727
12.2688 4.66626 4.55753
11.5917 4.5284 4.53636
11.9095 4.484 4.46262
11.5971 4.5646 4.54702
11.5336 4.4466 4.4698
11.3948 4.51255 4.53328
11.3049 4.45201 4.51299
11.2887 4.42229 4.47795
11.4656 4.53691 4.64766
11.3706 4.55113 4.67833
11.5753 4.7241 4.80314
11.3353 4.45423 4.58436
11.5334 4.7289 4.86862
11.2225 4.58469 4.82605
11.1644 4.57371 4.75541
11.0126 4.61395 4.87802
11.1489 4.6158 4.83267
11.0598 4.58271 4.78806
11.0294 4.59635 4.91967
10.9889 4.59414 4.84651
10.9204 4.54862 4.81741
11.0037 4.6516 4.97301
10.713 4.50727 4.87934
10.742 4.56945 4.88165
10.8951 4.57031 4.92977
10.7422 4.48225 4.89595
10.6345 4.54149 4.98661
10.4726 4.41694 4.81862
10.6834 4.48083 4.91703
10.605 4.61173 5.06722
10.8466 4.49134 4.95518
10.5027 4.59644 5.02028
10.6056 4.61083 5.12103
10.5127 4.66232 5.13987
10.5567 4.54249 5.17465
10.4911 4.55129 5.14709
10.4416 4.57907 5.17473
10.4534 4.62548 5.21823
10.18 4.50544 5.12731
10.2132 4.55881 5.23515
10.4056 4.73014 5.39979
10.0364 4.53933 5.27248
10.1621 4.64673 5.30787
10.147 4.72486 5.47826
10.2513 4.59329 5.27852
9.92032 4.49814 5.20601
10.0263 4.57885 5.38621
9.96943 4.55774 5.32756
10.1741 4.61202 5.42426
9.98247 4.74222 5.65235
9.95434 4.60858 5.47188
9.80788 4.60996 5.49183
9.97023 4.55741 5.39307
9.88538 4.49088 5.3699
9.82305 4.66619 5.60102
10.0845 4.7212 5.61187
9.6769 4.61688 5.62658
9.86744 4.70168 5.79723
9.76431 4.66086 5.5986
9.68971 4.60395 5.63252
9.58066 4.63955 5.61861
9.4898 4.57659 5.75832
9.6633 4.78449 5.85498
9.61673 4.66245 5.81775
9.4353 4.56046 5.62335
9.40675 4.66447 5.79317
9.5673 4.81087 5.92307
9.57341 4.81525 6.02285
9.34918 4.61281 5.78511
9.20658 4.63174 5.86934
9.55248 4.84422 6.10114
9.24725 4.74292 5.94325
9.19793 4.69694 5.93162
9.0317 4.53543 5.88513
9.41314 4.85617 6.20943
8.9766 4.58809 5.86864
9.2374 4.75653 6.18701
9.11008 4.66856 6.02885
9.01978 4.70142 6.13863
9.05412 4.63456 6.07641
9.06449 4.77127 6.22389
9.13639 4.79756 6.23294
9.11031 4.93888 6.40589
9.2893 4.77666 6.24571
9.00922 4.75004 6.34694
9.36981 4.76202 6.33354
8.9638 4.79459 6.36582
9.44405 4.82575 6.4358
8.73612 4.78714 6.3972
9.46517 4.74532 6.35507
8.92516 4.83073 6.41748
9.51342 4.79199 6.46511
8.79118 4.84831 6.61476
9.6276 4.85572 6.67321
8.95777 4.84706 6.56066
9.90482 4.96114 6.71023
8.7857 4.93535 6.79138
10.04 5.22978 7.29685
8.88015 5.02188 6.83814
9.83049 4.88906 6.76806
8.7672 5.14504 7.19461
9.5311 5.03449 7.05894
8.83676 4.9175 6.82834
9.13997 4.9705 6.86193
8.68707 4.96316 6.9807
8.73769 4.91379 6.83433
8.42214 4.70967 6.80979
8.52828 4.80608 6.83926
8.47494 5.04207 7.07118
8.31466 4.90138 6.97011
8.40552 4.94274 6.93159
8.15431 4.72419 6.77992
8.1916 4.73751 6.85315
8.37451 4.97057 7.13151
8.26438 4.89396 7.08956
8.14959 4.76531 6.88848
8.20166 4.82846 6.99913
8.12565 4.82823 7.12478
8.01092 4.70276 6.8642
8.12831 4.82613 7.00139
7.91513 4.82403 7.12463
7.97406 4.73613 6.99932
8.00307 4.81137 7.19228
8.06946 4.78342 7.02425
7.89578 4.78224 7.168
7.99453 4.7282 7.0214
7.88899 4.79822 7.08904
7.96658 4.75482 7.1182
7.83011 4.76113 7.2165
7.96412 4.79601 7.2496
7.92015 4.64648 6.95756
7.97377 4.67613 7.10131
7.85973 4.83719 7.38185
7.84943 4.69521 7.19357
7.89891 4.73051 7.25908
7.89556 4.72931 7.29105
7.83217 4.72156 7.27188
7.69929 4.73919 7.3184
7.86553 4.93076 7.55538
7.68376 4.8236 7.54535
7.83108 4.84289 7.4844
7.6951 4.80734 7.50923
7.74173 4.89149 7.7165
7.57493 4.89073 7.64495
7.58018 4.71482 7.42087
7.58485 4.98604 7.92832
7.5714 4.77899 7.60985
7.53334 4.88467 7.68372
7.57867 4.82654 7.52832
7.58227 4.9249 7.82161
7.53315 5.02991 8.06812
7.42055 4.99461 8.09969
7.59624 4.96784 7.98406
7.49113 4.93628 7.88579
7.40885 5.00165 8.16194
7.34442 4.85184 7.73918
7.45491 4.93172 8.12776
7.39438 4.86352 7.97602
7.3437 5.00545 8.00495
7.28214 4.7909 7.8254
7.32112 4.76541 7.84165
7.20021 4.75699 7.88193
7.27635 4.87977 8.04734
7.18554 4.8287 8.04847
7.39554 4.98185 8.1939
7.23666 4.90916 8.16707
7.24288 4.86844 8.16093
7.18013 4.85764 8.11119
7.08923 4.95322 8.31483
7.15782 4.89668 8.27533
7.14955 4.8436 7.97786
7.0453 5.02908 8.45839
7.03422 4.89171 8.23665
6.97633 4.86881 8.2407
7.03823 4.88302 8.38297
7.10019 5.02687 8.55825
6.96257 4.7299 7.95047
6.91158 4.83029 8.33522
6.99242 4.90635 8.36423
6.7824 4.73765 8.23663
6.92674 4.76516 8.2449
6.88674 4.97444 8.55357
6.97837 4.81997 8.43658
6.80501 4.79064 8.28418
6.90346 4.84479 8.51558
6.8472 4.9637 8.67868
6.97532 4.99737 8.61586
6.79368 5.00635 8.85418
7.00981 4.9911 8.86214
6.9416 5.04334 8.80475
6.81813 4.95146 8.88657
6.83427 4.94646 8.8017
6.93272 5.04643 8.8798
6.65392 4.77057 8.52425
6.95133 4.87531 8.70809
6.82553 5.03838 8.98936
7.02284 4.91889 8.88091
6.83822 4.97127 8.8029
6.95337 4.93539 9.00323
6.8459 4.97855 8.95944
7.00548 4.95987 8.90449
6.75027 4.7837 8.73104
6.82438 4.89617 8.9394
6.94031 4.85993 8.86513
6.81695 4.85299 8.91663
6.87467 4.92228 9.12709
6.73965 5.0994 9.34782
6.95934 4.93359 9.043
6.49868 4.95701 9.06184
6.77777 4.95218 9.25585
6.54607 4.99635 9.2747
6.73089 4.96606 9.24323
6.39638 4.93641 9.10938
6.52671 4.9626 9.30178
6.37711 5.06294 9.64408
6.36537 4.8859 9.23086
6.33706 5.00756 9.44204
6.45272 5.02916 9.57622
6.34679 4.88017 9.1674
6.33862 5.02198 9.55963
6.37543 4.96258 9.49702
6.42162 5.06516 9.38958
6.26912 5.00473 9.68384
6.32249 4.84347 9.54799
6.3238 4.92478 9.29344
6.24746 4.89446 9.39199
6.19518 4.84578 9.38047
6.2479 5.01751 9.51746
6.26768 5.10009 9.80566
6.18106 4.80907 9.35697
6.14349 4.79133 9.37083
6.25982 4.99131 9.61108
6.32641 5.00845 9.66319
6.12385 4.90452 9.66806
6.36196 5.17639 10.0767
6.17813 4.9999 9.87967
6.29755 5.09417 10.1329
6.26156 4.97954 9.70415
6.15788 5.03912 10.1005
6.18195 5.00662 9.85362
6.13357 5.22146 10.2776
6.10236 5.01271 10.0537
6.02174 4.95225 9.85734
6.01034 5.04518 10.0857
5.98942 4.95706 10.056
5.97093 4.89789 9.90382
6.06482 5.04612 10.2014
6.04727 5.17186 10.2755
6.1947 5.09707 10.2829
5.82143 4.999 10.2891
6.21279 5.0502 10.3134
5.99917 5.08372 10.1404
6.14612 5.03152 10.2093
5.91485 5.07531 10.4748
6.01586 5.13617 10.4738
5.88955 4.95835 10.1989
5.93051 5.06551 10.312
5.81001 4.96779 10.3481
5.86321 4.93782 10.1278
5.93871 5.1134 10.6352
5.8366 5.22513 10.7043
5.89179 5.12307 10.615
5.76588 5.04303 10.6452
5.86338 5.0748 10.5642
5.83141 5.18942 10.7756
5.9042 5.13869 10.8349
5.89771 5.06803 10.7386
5.87141 5.20307 10.7884
5.6942 5.11968 10.7957
5.88381 5.14039 10.9016
5.74093 5.10894 10.8427
5.7668 5.09318 10.7198
5.62832 4.98679 10.6798
5.73754 5.07489 10.768
5.63761 5.02403 10.8637
5.58251 5.04177 10.9794
5.6718 5.12071 10.8079
5.67662 5.00402 10.5534
5.53149 4.91649 10.8932
5.78105 5.28458 11.2266
5.53672 4.97444 10.8434
5.70573 5.2192 11.416
5.72981 5.1409 11.2759
5.80476 5.23928 11.3363
5.67667 5.05686 11.075
5.59727 5.09367 11.0869
5.63897 5.13446 11.2004
5.65133 4.9265 10.8315
5.61467 5.05843 11.1703
5.62388 5.1942 11.4108
5.60235 5.06938 11.1213
5.49739 5.13346 11.4261
5.59313 5.19264 11.4924
5.59071 5.25704 11.6437
5.59411 5.14939 11.2473
5.52037 5.18305 11.4943
5.49413 5.1807 11.5601
5.61104 5.13846 11.3745
5.49759 5.06472 11.3697
5.60198 4.97481 11.2861
5.57416 5.03955 11.4923
5.59951 5.26272 11.6197
5.46706 5.0851 11.607
5.49449 5.14298 11.6718
5.66039 5.13133 11.8794
5.51829 5.18802 11.7571
5.64788 5.36352 12.0069
5.44538 5.20434 11.806
5.62726 5.15783 11.7596
5.2753 5.08212 11.7694
5.59199 5.31811 12.222
5.42338 5.11999 11.626
5.59226 5.33986 12.1173
5.37012 5.1848 11.9133
5.50017 5.28155 12.1251
5.32754 5.1488 11.8298
5.5112 5.22255 11.9541
5.19391 5.08119 12.0142
5.36917 5.22309 12.2262
5.42139 5.20902 12.091
5.39705 5.16759 11.8676
5.33359 5.32596 12.6255
5.32807 5.31388 12.4316
5.28358 5.25203 12.1563
5.13205 5.19008 12.3409
5.17438 5.19179 12.1638
5.1603 5.20364 12.4698
5.14797 5.17775 12.2791
5.24823 5.15814 12.0743
5.13598 5.12441 12.2192
5.10883 5.19176 12.4996
5.1925 5.39633 12.8202
5.17085 5.27756 12.5189
5.19778 5.30126 12.8385
5.20872 5.20617 12.6238
5.37861 5.41611 12.9114
5.32983 5.2744 12.4955
5.2485 5.24804 12.9295
5.34464 5.32149 12.7444
5.3727 5.28429 12.7183
5.19333 5.29655 12.6333
5.20793 5.25266 12.8545
5.21494 5.27315 12.6513
5.15728 5.14453 12.5681
5.1139 5.30862 12.9183
5.13801 5.13097 12.5804
5.04877 5.3894 13.1542
5.10636 5.26163 12.8734
5.10464 5.40274 13.1601
5.0997 5.3923 13.4493
5.20767 5.37352 13.1341
5.05938 5.26534 12.8364
5.15543 5.27177 12.9833
4.98229 5.21541 13.0627
5.19714 5.32442 13.0282
5.00561 5.31859 13.138
5.16629 5.10718 13.0433
5.09833 5.40519 13.122
5.16378 5.44313 13.4178
5.06182 5.1989 13.1453
5.159 5.48551 13.8083
5.12478 5.37088 13.4228
4.91653 5.42493 13.5116
5.02211 5.18303 13.1329
4.89 5.38326 13.771
5.00879 5.33142 13.5731
4.95683 5.31705 13.3874
4.97073 5.44719 14.0127
5.02503 5.52828 13.7018
4.92997 5.35615 13.936
4.9652 5.46169 13.9088
4.89673 5.48113 14.2103
4.90845 5.46253 13.868
4.98051 5.458 13.8593
4.92702 5.49319 14.0349
4.92345 5.51331 14.1413
4.90201 5.5149 14.3629
4.96977 5.65758 14.36
4.9861 5.61094 14.4992
4.87778 5.49212 14.3018
4.93233 5.61448 14.6613
5.11956 5.70519 14.6387
4.95619 5.66517 14.695
5.13622 5.75511 14.9635
5.01207 5.87852 15.4933
5.40628 6.24424 16.2881
5.09222 5.95267 14.9672
5.104 5.66259 16.0686
5.24055 6.20721 15.9947
5.17928 6.04227 15.4973
5.06868 5.87845 15.4973
5.00634 5.81121 15.3946
4.95818 5.77922 15.2831
4.94496 5.85629 14.9742
4.83509 5.57853 14.7622
4.78621 5.57051 14.741
4.82772 5.55958 14.7471
4.68763 5.56341 15.1558
4.74425 5.61155 14.9186
4.69629 5.6414 14.8676
4.69282 5.65592 15.0286
4.67394 5.44126 14.6832
4.65454 5.50852 14.9646
4.59982 5.56489 15.194
4.76089 5.6441 14.9789
4.63537 5.47953 14.6533
4.71161 5.52432 14.9953
4.68867 5.68334 15.2206
4.64183 5.32061 14.6386
4.67144 5.58105 15.0956
4.66163 5.36467 14.5235
4.71552 5.57583 14.9071
4.62368 5.50369 15.015
4.6307 5.38135 14.9501
4.68869 5.56984 15.0041
4.64433 5.51433 14.8544
4.674 5.45121 15.0736
4.60897 5.56954 15.1124
4.70092 5.59083 15.4224
4.57231 5.21404 14.0974
4.53213 5.41268 15.1437
4.49346 5.38138 15.0089
4.55564 5.44367 15.1164
4.48357 5.43406 14.9006
4.56785 5.41232 14.9359
4.52214 5.41548 14.9086
4.56534 5.57936 15.6698
4.5642 5.57749 15.2506
4.4915 5.52035 15.3905
4.55122 5.34033 14.9837
4.60928 5.65057 15.7966
4.51175 5.42592 15.2524
4.49904 5.5915 15.6681
4.46006 5.71712 16.2881
4.6115 5.60988 15.4597
4.49847 5.53178 15.5821
4.48804 5.5693 15.8063
4.45458 5.50859 15.6025
4.52887 5.5638 15.9275
4.42079 5.64608 18.9065
5.37309 7.74966 17.9842
4.38286 5.61763 16.1863
4.45537 5.5645 15.641
4.40255 5.38151 15.5724
4.43832 5.47613 15.6542
4.38383 5.50637 15.8512
4.44234 5.67445 16.1356
4.49187 5.5076 15.7752
4.40896 5.58222 16.1904
4.50714 5.59418 15.9035
4.39448 5.61418 16.3486
4.33783 5.42406 15.5752
4.43009 5.59155 16.1323
4.36903 5.48736 15.9722
4.49955 5.61701 15.8763
4.25557 5.43704 16.2234
4.44173 5.61877 15.9526
4.38954 5.49607 15.8475
4.32579 5.74005 16.815
4.39552 5.63221 16.7013
4.42743 5.74332 16.5519
4.38642 5.57555 16.0735
4.29814 5.55363 16.2983
4.32885 5.58097 16.5448
4.3386 5.58791 16.5831
4.33858 5.71245 16.3582
4.29881 5.55034 16.0582
4.2519 5.57432 16.2017
4.24763 5.51947 16.4015
4.2525 5.53933 16.129
4.20926 5.60086 16.5217
4.27027 5.54571 16.4656
4.22081 5.41354 15.8551
4.15036 5.37404 15.9731
4.21654 5.55297 16.2868
4.21144 5.4221 16.1245
4.24964 5.53587 17.5327
4.46655 5.96853 16.9122
4.26211 5.47933 16.5063
4.19218 5.5618 16.7555
4.2329 5.56379 16.6115
4.21372 5.73588 17.0661
4.22255 5.67969 16.8106
4.30117 5.72398 17.101
4.26011 5.52434 17.1287
4.38868 5.82507 17.3564
4.2986 5.71703 17.0952
4.32528 5.59599 17.2646
4.36643 5.69287 16.7748
4.38714 5.48734 16.816
4.25115 5.59238 16.9674
4.41092 5.57642 16.8238
4.21307 5.75289 17.1259
4.42102 5.62643 17.2402
4.11083 5.5793 17.2162
4.33521 5.70601 17.7573
4.24861 5.68445 17.1349
4.30491 5.69095 17.4655
4.23058 5.77234 17.0872
4.23654 5.7817 17.6959
4.20923 5.76654 17.4907
4.16766 5.73469 17.7115
4.14663 5.79977 17.9347
4.21673 5.63554 17.0724
4.13861 5.57922 17.198
4.03083 5.66803 17.4369
4.10109 5.56524 17.148
4.12023 5.65669 17.4036
4.16927 5.70472 17.812
4.22865 5.59408 17.5717
4.14656 5.68137 17.3501
4.16331 5.76976 17.8037
4.15118 5.67029 17.9436
4.27886 6.23193 20.0044
4.29079 5.77363 17.7833
4.107 5.78329 17.7581
4.1228 5.75234 17.9619
4.12975 5.71 17.9619
4.0923 5.52237 17.5114
4.1788 5.67462 17.5538
4.06155 5.7237 17.7809
4.12679 5.76878 18.019
4.12859 5.77048 17.9079
4.04108 5.66146 18.3066
4.13347 5.65536 17.5453
4.13483 5.76815 18.2103
4.11544 5.74001 18.0104
3.94785 5.67135 17.8095
4.00799 5.67364 17.9856
4.06774 5.72446 18.1601
4.01725 5.70883 18.2971
4.11542 5.79661 18.5737
4.04676 5.90407 18.1405
4.10158 5.87041 18.5478
4.07862 5.85317 19.1669
4.10731 5.68264 18.1195
4.07704 5.8121 18.3382
3.99157 5.59708 18.0523
4.01596 5.73936 18.0252
3.96188 5.57433 18.1664
4.02377 5.6968 18.164
3.98221 5.52606 17.9877
4.0847 5.67711 18.1311
3.94707 5.67441 18.2501
3.98398 5.64863 18.127
4.02472 5.74155 18.7911
4.04447 5.73556 18.3502
3.9918 5.83898 18.5158
3.93246 5.69586 18.5238
3.94647 5.64394 18.4153
3.93441 5.69536 18.4408
3.98348 5.5682 17.8744
3.94409 5.69986 18.6025
3.96841 5.70077 18.7721
3.94638 5.94573 19.2701
3.93754 5.77252 18.9198
3.96768 5.8061 18.8211
3.90804 5.7616 19.1918
3.994 5.92481 19.454
3.93613 5.77536 18.8922
3.96047 5.69643 18.9146
3.95922 5.88668 18.8959
3.97911 5.86846 18.9456
3.86755 5.74003 19.2242
4.00048 5.70838 18.9076
3.91007 5.86932 19.4744
4.05091 5.76941 18.8033
3.9432 5.90727 19.5098
3.94897 5.89202 19.2481
3.98405 5.85031 19.4434
3.98638 5.86012 18.9233
3.92315 5.74338 19.1252
3.9129 5.77623 19.2431
3.9435 5.82643 19.1974
3.93692 5.78465 19.1755
3.94581 5.90405 19.6682
3.87877 5.94083 19.7553
3.9506 5.72364 19.2458
3.92122 5.82585 19.5048
3.80963 5.74759 19.168
3.84015 5.71647 18.8614
3.77449 5.93366 20.0252
3.888 5.91679 19.6285
3.85671 5.8364 19.198
3.86281 5.78609 19.8364
3.86654 5.86537 19.8973
3.83728 5.81726 19.3431
3.86851 5.6608 18.9079
3.79124 5.73327 19.4019
3.78952 5.723 19.2424
3.88843 5.77027 19.7165
3.92418 5.97988 19.7174
3.90153 5.72767 19.7108
3.89432 6.024 20.2625
3.90466 5.93085 20.0323
3.84098 5.91761 20.3156
3.91706 6.05582 20.3417
3.8987 5.76771 19.6146
3.87013 5.7185 19.6471
3.81718 5.80076 19.5727
3.84294 5.93142 20.462
3.90556 5.90571 19.8961
3.88245 5.78834 19.8065
3.80756 6.11362 20.8494
3.89274 5.99336 20.3479
3.81561 5.84669 20.1862
3.92818 5.87891 20.0696
3.781 5.79268 20.5848
3.85317 6.04413 20.1402
3.78109 5.71422 19.6672
3.83512 5.87324 20.329
3.76474 5.78757 19.9006
3.76616 5.95757 20.5927
3.84641 5.92505 19.9082
3.78822 6.0308 20.3906
3.73632 5.76832 20.1894
3.74059 5.76585 20.1381
3.77047 5.96109 20.1993
3.792 5.86893 20.3166
3.82619 6.10138 20.8424
3.78468 5.81831 19.9694
3.78356 5.81973 20.4292
3.77716 5.93639 20.5224
3.83016 5.80748 20.5983
3.82516 6.01241 20.5214
3.79779 5.92715 20.4022
3.68175 5.98966 21.5838
3.90581 5.82777 20.3739
3.7692 5.91325 20.6543
3.83026 6.00757 20.9363
3.79547 5.94359 20.5776
3.79957 5.90617 20.8979
3.76544 5.98848 20.643
3.75642 5.93303 20.8299
3.6768 5.9825 21.0109
3.70776 5.88147 20.8882
3.76422 6.07413 21.3317
3.73627 5.87282 20.6648
3.79975 6.18415 21.3789
3.70138 5.88106 20.8101
3.79895 6.03093 21.4951
3.69937 5.84749 21.0097
3.82858 6.08689 20.9077
3.71331 5.86111 20.5779
3.72046 5.81194 20.7757
3.62038 5.85513 20.7164
3.80564 6.03674 21.1118
3.63977 5.83829 20.9593
3.61654 6.01616 21.3266
3.64248 5.92652 21.7045
3.74156 6.18132 21.3791
3.72529 6.02887 21.3807
3.63943 6.00976 21.6679
3.78305 6.02117 21.3667
3.71365 6.04582 21.6067
3.74154 5.91688 20.9532
3.64767 6.10519 21.7347
3.70244 6.06715 21.6972
3.68255 6.12586 21.6957
3.70493 6.03175 21.7462
3.68132 6.22732 22.3227
3.75421 6.12483 21.5488
3.63994 6.149 22.3887
3.78508 6.06414 21.6426
3.69902 6.03898 21.7617
3.64179 6.05576 22.3976
3.73461 6.33499 22.2646
3.73178 6.17927 22.2903
3.75478 6.11552 22.4379
3.99348 6.34414 22.9161
3.7947 6.59203 23.4792
3.9096 6.32686 22.8724
3.80865 6.6777 24.5442
4.10541 7.01442 25.1584
3.81545 6.63817 22.5811
3.95492 6.32847 24.6886
3.92572 6.95542 24.7619
4.16785 6.7176 24.3189
3.77697 6.4486 23.3696
3.95071 6.27669 22.6215
3.65016 6.16429 22.59
3.89948 6.35767 22.7859
3.68021 6.28373 22.7535
3.71012 6.26041 22.9524
3.69754 6.34866 22.8854
3.6956 6.16803 22.3038
3.62735 6.02899 22.3479
3.65393 6.12174 22.5076
3.72413 6.33737 22.971
3.69309 6.14051 22.4711
3.63337 6.2638 22.4747
3.63865 6.31749 22.9039
3.59307 6.08139 22.5652
3.65997 6.14943 22.5166
3.62306 6.11086 22.568
3.60836 6.10659 22.0731
3.56276 6.12502 22.865
3.64197 6.13627 22.5169
3.65201 6.11477 21.8881
3.583 6.01671 22.6467
3.63705 6.20109 22.6024
3.57301 6.03163 21.9406
3.59536 6.07688 22.5246
3.67191 5.98083 22.0172
3.62532 6.19912 22.5769
3.56008 6.00544 22.0782
3.62395 6.08818 22.8899
3.60451 6.15036 22.3047
3.56699 5.99164 22.3463
3.53475 6.11919 22.7487
3.66863 6.15998 22.3899
3.54882 6.04499 22.534
3.62798 6.15401 22.3664
3.5307 6.10505 22.9619
3.60306 6.09568 22.6633
3.50207 6.07936 22.8755
3.58458 6.21672 23.2568
3.55091 6.22274 22.8039
3.63676 6.13111 22.6684
3.55396 6.10981 22.4541
3.59935 5.94736 22.6267
3.54882 6.21987 22.9207
3.54567 5.88791 22.2006
3.53066 6.22358 23.1729
3.65091 6.15351 22.697
3.47985 6.1353 23.1858
3.62624 6.03023 22.2302
3.49847 6.03787 22.3874
3.50918 6.02993 22.7473
3.59485 6.0825 22.2741
3.45456 6.04696 22.4827
3.49502 5.96426 22.985
3.53102 6.12705 22.2339
3.47914 5.88502 22.7684
3.5748 6.10104 22.5978
3.42884 6.10453 23.0484
3.49813 6.07096 23.3731
3.53345 6.18247 22.176
3.42091 6.03519 22.4333
3.469 6.02549 22.7923
3.45306 5.98793 22.8335
3.44926 6.06832 22.8503
3.5073 6.1173 23.0939
3.51165 6.08756 22.8883
3.5007 5.99483 23.0896
3.56574 6.05971 23.1596
3.55564 5.97461 22.6702
3.46452 6.18405 23.4274
3.5514 6.09398 22.3986
3.4861 5.99502 23.4357
3.50573 6.10839 23.3549
3.50574 6.15257 23.0242
3.5361 6.03414 23.1296
3.42672 6.04196 22.8068
3.53509 6.03325 22.2474
3.44519 5.88847 22.2812
3.46053 5.83145 22.8106
3.50368 6.10722 23.1999
3.53131 6.07634 22.557
3.43436 6.05526 23.1197
3.51966 6.01437 23.0037
3.48992 6.10832 22.4576
3.44273 5.86706 23.1481
3.52365 6.25045 23.804
3.57911 6.09369 23.266
3.48921 6.08539 23.3889
3.722 6.18887 22.9586
3.46493 5.89138 23.2033
3.73704 5.98137 22.9271
3.44673 6.01746 22.5853
3.65939 5.96897 22.6916
3.49805 5.93672 23.2068
3.7343 6.11406 24.163
3.68997 6.30597 23.5004
3.61171 6.13948 23.5059
3.65259 5.93829 22.9544
3.58405 6.07714 23.1738
3.64449 6.16196 23.0674
3.4742 6.07648 23.5062
3.62784 5.96533 23.1188
3.45116 5.95181 22.7103
3.55739 6.07722 23.8694
3.48207 6.28235 24.0986
3.72327 6.21035 23.7312
3.47155 6.13404 23.7067
3.63488 6.23231 23.5651
3.4704 6.1967 23.8139
3.47375 6.01658 22.7847
3.44251 6.15127 23.6708
3.50221 6.08173 23.7377
3.48316 6.2004 23.8947
3.43935 6.03666 23.2545
3.4253 5.90978 22.8364
3.41798 6.00118 22.9496
3.37141 5.99143 23.0453
3.39538 5.94459 22.9308
3.39326 5.90895 22.8721
3.38872 5.82805 22.6395
3.33896 6.00111 23.2373
3.41299 5.90226 23.0661
3.33108 6.0655 23.7501
3.41264 5.87824 22.465
3.29787 5.96726 23.0988
3.3727 5.98438 23.2104
3.4622 6.00481 23.0393
3.40348 6.09879 23.8464
3.44343 5.88174 23.5313
3.43098 5.90721 22.9891
3.39162 6.0304 23.4711
3.36659 6.06999 23.6306
3.45413 6.14308 23.7135
3.44201 5.93065 22.9805
3.40472 6.17327 23.5176
3.43762 5.98198 23.4338
3.37554 5.98354 23.2667
3.43109 6.0645 23.7102
3.36771 6.09961 23.9705
3.51939 6.05889 23.2213
3.38652 6.16491 23.7212
3.37697 6.22596 24.4486
3.3384 6.03823 23.7639
3.40095 6.11027 23.7098
3.33768 6.09391 23.1737
3.38886 6.04005 24.2572
3.42856 6.04129 22.739
3.34273 6.01907 24.4289
3.46019 6.16265 23.3735
3.3994 5.95313 23.5488
3.40144 6.10494 24.0507
3.44716 6.07268 24.3533
3.44238 6.16606 24.0995
3.42453 6.37137 24.4318
3.37089 5.96185 23.8743
3.40702 6.05472 23.4861
3.33161 6.20176 24.5347
3.39155 6.29164 23.7677
3.30446 6.09572 23.4863
3.33003 6.02419 23.9918
3.30332 6.01473 23.8057
3.33633 5.91874 23.4078
3.30529 6.06405 23.6533
3.35483 5.99623 23.4432
3.32037 5.99393 23.5289
3.40223 5.98123 23.2836
3.18468 5.98685 24.0814
3.38343 6.05949 23.4123
3.34118 5.96881 23.6489
3.3752 6.09825 23.9913
3.41701 6.1546 24.2818
3.38168 6.09948 23.7753
3.41298 6.01423 23.9338
3.37221 5.88023 23.4078
3.41358 6.02015 23.3498
3.32693 5.96125 24.0799
3.39003 6.22299 23.6454
3.38339 6.0646 24.2668
3.35335 6.0166 24.118
3.34467 6.12657 24.1871
3.33815 6.18976 24.3178
3.40833 6.13023 23.7761
3.31553 5.90321 23.6615
3.35263 5.94035 23.1952
3.25565 6.00187 23.7557
3.41254 6.09967 23.8713
3.31183 6.18712 24.3441
3.4302 6.07788 24.1011
3.34907 6.01083 23.9643
3.3892 6.05017 23.6581
3.25164 6.03464 24.0744
3.37804 6.19178 24.9924
3.37097 6.38625 24.4956
3.40503 5.98663 24.0903
3.45843 6.19702 24.168
3.34947 6.1477 24.6051
3.49673 6.05209 24.15
3.27813 6.1998 24.2473
3.45625 5.98828 23.6078
3.32677 6.12501 24.58
3.48686 6.31613 24.8179
3.32448 6.16298 24.8502
3.52105 6.19496 24.3792
3.33071 6.03178 24.0129
3.41741 6.01656 24.1945
3.34037 6.11673 23.1876
3.31613 5.95381 24.5835
3.33025 6.15251 24.0305
3.37824 6.2391 24.2914
3.31419 5.94915 24.1352
3.36711 6.08412 24.1131
3.27896 6.40431 25.4114
3.441 6.09011 24.262
3.35362 6.12117 24.0523
3.3353 6.03414 23.9402
3.31258 6.07706 24.1357
3.25463 5.96299 24.3357
3.34059 6.1681 23.9075
3.28713 5.92973 24.1846
3.31922 6.16771 24.2505
3.3381 6.06375 23.734
3.3013 6.01906 23.9709
3.28311 5.96388 23.759
3.22071 6.10998 24.857
3.2827 6.1856 24.2291
3.33262 6.06364 23.8696
3.31501 6.03988 24.0389
3.26491 6.23033 24.2923
3.33733 6.02725 24.5072
3.29165 6.11279 24.3796
3.32345 6.23309 24.5195
3.34075 6.04086 24.2408
3.30806 6.14978 24.1843
3.278 6.13843 24.8574
3.32751 6.18864 24.4231
3.29968 6.17424 25.0094
3.32003 6.24118 24.6671
3.36251 6.18201 24.6077
3.32262 6.28153 26.0817
3.47752 6.38417 24.7166
3.27332 6.10107 24.3841
3.36908 6.13193 24.1508
3.3098 6.20022 25.5556
3.42177 6.30555 24.1216
3.28976 6.11879 25.5302
3.39886 6.18707 24.1651
3.29103 6.13401 24.4724
3.2577 6.2574 24.9546
3.40972 6.09768 24.3001
3.31021 6.05244 24.9537
3.40685 6.09041 24.4224
3.35988 6.24871 24.3018
3.38717 6.22057 24.7441
3.39538 6.13556 24.6684
3.34911 6.10257 24.9567
3.3679 6.21654 25.041
3.38232 6.14903 25.9477
3.42995 7.45192 26.5362
3.47469 6.09572 24.6034
3.33765 6.12161 24.8155
3.34577 6.22573 25.6152
3.42551 6.3939 24.9401
3.41871 6.44643 25.0757
3.32865 6.08407 24.9636
3.3928 6.41553 25.7595
3.41243 6.31795 24.9135
3.32809 6.14554 24.4751
3.33162 6.28371 25.2092
3.36984 6.20174 25.0823
3.28267 6.41508 25.4872
3.36495 6.30193 24.7555
3.34066 6.25227 25.6836
3.36546 6.27086 24.9077
3.38821 6.40078 25.7981
3.38001 6.44232 25.5323
3.37683 6.48201 26.4426
3.38843 6.50342 25.1976
3.3262 6.50073 25.5449
3.35434 6.33709 26.437
3.43833 6.67066 25.9134
3.4726 6.58971 27.3805
3.60171 6.70285 27.651
3.52226 7.03683 28.3805
3.73991 7.24516 28.7981
3.60736 6.7989 25.6164
3.587 0 0