# pn-170911/RbIIA-27-PTBB-1280-1959.psd
# Power spectrum* (dif=0,1,2) (really just |FT|^2)
# NOTE: only the first half! (symmetric)
# weeks: 1280-1959
# 4 clock-days, 0 excluded
# PSD: 1441
6229.16 0.134093 0.00317421
161791 2.35853 0.000601979
1.40172e+06 36.3905 0.000515016
106748 3.37581 0.000288393
79729.2 5.68889 0.000833128
43236.8 2.04703 0.00110686
26262.5 2.32142 0.00121659
26949.6 3.25808 0.000512282
20505.5 2.97832 0.00109586
14910.8 4.69283 0.00070655
11882.7 4.12834 0.00225355
9087.73 2.958 0.00169808
9544.15 2.2844 0.00143768
2372.6 3.48829 0.00328862
2548.85 1.46163 0.00177817
9713.38 5.86638 0.00414559
3662.89 4.53735 0.00514877
6004.13 4.72882 0.00825909
3784.19 4.31164 0.0101232
1506.11 2.51796 0.00469431
3843.12 5.41676 0.0102878
2785.94 4.3824 0.00864934
1050.55 1.50359 0.00356708
3042.77 5.13446 0.0134268
2028.54 6.39128 0.0199028
3277.57 4.45044 0.0161261
2659.37 6.93105 0.0230126
870.896 2.42545 0.00612178
1099.18 3.18812 0.0145406
1630.08 3.80413 0.0138369
1155.47 2.07713 0.0130832
1523.85 5.3151 0.0264774
1558.5 4.4129 0.0191985
1354.39 3.06867 0.0130999
2132.21 6.92803 0.0443419
1208.32 4.72233 0.022931
627.522 3.2184 0.0219812
1306.46 4.02578 0.0292585
1440.69 3.29959 0.0228151
738.604 5.26848 0.0392931
546.195 3.63667 0.0306957
503.236 3.75728 0.0327386
483.874 2.01053 0.0182544
764.873 3.89152 0.0292763
254.089 1.14492 0.0091488
907.205 4.02037 0.0403271
468.904 4.85869 0.0470631
490.112 4.73625 0.0553675
394.504 2.51028 0.0254912
309.583 1.98375 0.0219037
516.239 2.78692 0.0378924
573.513 4.5847 0.0553566
395.9 2.40042 0.0261554
397.145 3.09304 0.0449552
459.887 4.17754 0.0597437
340.193 3.60671 0.0492014
320.779 2.97687 0.046969
536.655 5.5255 0.0810621
305.019 2.78513 0.0452041
100.91 1.42399 0.0258977
467.913 2.79853 0.0455977
374.388 6.49632 0.114819
525.785 4.3158 0.073881
259.033 3.56692 0.0652969
276.611 3.40507 0.0686447
244.406 6.34984 0.135163
559.375 4.50728 0.083381
437.069 5.83683 0.133198
232.368 5.82522 0.121524
252.335 6.50092 0.152854
658.662 7.69398 0.180718
558.342 6.18261 0.143051
199.201 4.24747 0.116638
311.767 4.60044 0.112146
198.596 4.13157 0.116048
244.238 7.01944 0.202398
153.048 3.1563 0.0795739
315.044 5.257 0.139959
249.647 6.90762 0.196421
313.747 8.82931 0.262321
348.094 5.80611 0.16924
326.179 8.55222 0.24794
127.362 1.56922 0.0403654
219.396 2.80502 0.0834469
347.737 9.83516 0.331217
208.206 3.37486 0.109068
175.05 3.62274 0.138754
210.24 2.5501 0.0829478
205.312 4.54082 0.174366
205.626 7.75413 0.276846
83.6172 0.651585 0.0246705
376.83 7.12627 0.275353
86.5422 2.02088 0.0843636
98.124 2.64409 0.126141
149.974 3.30945 0.122637
76.8725 2.18688 0.0955399
226.71 7.25625 0.320198
157.875 5.57207 0.259582
198.858 5.43873 0.260845
92.2578 0.8107 0.0421576
231.583 8.02454 0.422096
130.739 3.79814 0.16657
134.955 5.50691 0.254417
140.522 3.22486 0.177953
185.773 5.82289 0.269164
201.272 9.5117 0.50316
100.582 4.72357 0.266008
138.007 3.96992 0.211713
158.657 4.20364 0.226017
74.7958 3.21123 0.193729
90.477 1.26027 0.0670062
107.598 3.95328 0.247208
164.061 4.47177 0.221949
106.072 2.75588 0.146976
346.254 11.5097 0.679399
82.2737 3.65373 0.223394
102.923 2.97834 0.189879
60.8852 2.61666 0.176894
72.9711 1.93556 0.117317
55.3185 2.86894 0.192178
107.833 3.48541 0.24831
265.553 12.1833 0.889856
183.338 8.62361 0.570181
33.2297 2.92793 0.205802
77.5157 5.63663 0.407273
61.0933 3.26225 0.266699
37.9483 1.89068 0.144237
88.8979 3.92948 0.310617
61.7939 2.256 0.170639
83.8585 2.95318 0.251783
93.5389 6.04711 0.455194
102.286 4.04274 0.325264
59.2049 2.68448 0.234373
186.501 9.86205 0.82818
57.9756 1.69067 0.14956
97.3881 6.26366 0.494772
113.996 4.67667 0.402647
77.0546 2.78801 0.236644
80.7546 3.26926 0.290285
118.169 7.53457 0.676995
187.003 8.90799 0.857611
57.4894 6.20553 0.591949
52.3837 3.76847 0.376048
69.496 2.69948 0.229631
143.428 10.3811 0.983365
104.182 6.84739 0.70965
51.3693 3.74197 0.376151
67.4687 4.82134 0.494974
159.96 11.5395 1.22215
120.609 7.90554 0.828109
52.5503 5.68775 0.672204
103.642 7.89866 0.841071
80.8793 6.17263 0.693398
54.3968 4.35653 0.458429
24.9967 0.370424 0.0455963
60.7696 4.89269 0.533952
162.415 9.06564 0.986451
85.1826 9.82473 1.20777
75.2404 4.96293 0.499537
122.127 8.28638 0.96993
57.6473 4.31843 0.494854
48.8665 3.32624 0.467861
112.455 7.19862 0.74796
79.8812 5.4265 0.703567
48.7479 6.78533 0.831078
60.503 3.57184 0.477207
84.7204 6.8147 0.896732
79.5583 4.90523 0.705257
16.6315 2.70644 0.31297
31.5882 4.33771 0.56387
21.1284 3.61155 0.539937
96.401 11.7008 1.62523
85.2283 5.77242 0.800047
112.868 12.2166 1.65857
34.1028 3.36555 0.553137
65.1369 7.53251 1.14308
71.6036 6.98689 0.976513
19.6549 2.26151 0.262165
19.6318 2.19489 0.330618
46.9501 3.06895 0.506013
58.707 6.06018 0.91167
24.6998 2.98292 0.48881
20.5949 3.65576 0.525707
47.2639 6.26817 0.928396
40.177 3.23581 0.538499
16.8892 3.81785 0.695812
60.6435 4.33794 0.720709
57.6659 8.87579 1.46916
50.9715 5.57816 0.871874
52.2935 4.66505 0.665346
48.8555 4.29597 0.739662
50.2974 5.43337 0.88037
37.1462 3.62939 0.720947
72.8032 7.0319 1.2278
34.15 4.68421 0.705669
44.273 5.6274 1.14459
20.0461 2.33821 0.416942
27.931 4.82911 0.884529
40.1104 5.28754 0.901301
67.4082 7.48859 1.33881
42.9711 6.23881 1.19129
25.1155 3.51738 0.680292
27.4069 2.93994 0.631239
5.63748 1.86643 0.313749
39.4824 3.60852 0.852501
34.3467 5.38244 1.04669
60.2964 10.6751 1.81011
59.9089 12.9676 2.70371
27.1191 11.0138 2.54188
41.2952 5.40372 1.0926
23.4692 2.05461 0.400026
75.7094 10.0952 1.89805
38.6956 6.69341 1.50001
26.9897 1.86066 0.34379
32.1709 5.98667 1.38709
43.3844 6.29858 1.239
41.4339 8.20255 2.10321
83.4458 11.5178 2.21356
64.2535 7.83597 1.62436
66.1708 10.3426 2.58357
40.8006 8.38342 2.05808
87.2818 12.5286 3.00521
59.2688 9.21548 1.85094
50.6879 12.7934 3.05258
61.0444 8.03217 1.50665
18.6176 4.78346 0.982365
66.1998 10.1004 2.32352
13.856 5.4738 1.26113
59.6042 16.2947 3.98621
28.3679 5.19275 1.16654
57.6312 10.256 2.68723
19.9012 3.01358 0.697986
16.8239 4.49272 1.4011
17.2819 2.35529 0.483168
24.7276 5.00338 1.35105
67.1561 8.52444 2.05768
18.2344 3.71458 0.91597
21.6196 4.833 1.45064
34.2467 6.65214 1.77581
24.239 4.42603 1.07855
23.0707 8.87098 2.32397
2.7124 2.89772 0.981511
25.7798 4.79593 1.17252
37.1198 11.2251 2.9906
22.4605 4.47428 1.18547
54.0593 8.54597 2.4579
18.7638 2.69407 0.978214
41.1135 20.2753 5.51539
25.0814 5.30683 1.62475
16.5126 2.25322 1.02367
48.4678 7.48984 1.93273
29.6758 4.64413 1.0482
55.7784 8.30309 2.27039
62.7445 11.0024 3.28418
44.8111 13.7038 4.00983
27.7359 5.67105 1.61389
33.6487 6.85703 2.498
8.75668 2.7233 0.749301
23.9815 8.58257 2.57555
17.995 11.4658 3.65277
10.5119 5.4253 2.12988
27.1511 2.39746 0.551362
40.9923 6.57967 1.95832
13.8659 7.59242 2.84289
42.9669 7.52981 2.32717
35.0154 6.463 2.17363
25.06 5.79586 1.75844
64.4692 11.595 3.72915
30.8132 6.32304 2.05114
15.7065 5.60166 1.7229
48.1818 11.2095 4.01146
35.2303 11.476 4.01687
25.1229 6.73952 2.23279
11.7796 7.08344 2.47407
49.4904 15.0641 5.5872
26.1519 4.4271 1.23568
25.8512 8.21047 2.54185
10.4569 4.11474 1.56468
34.1014 11.7016 4.60946
33.5572 7.84508 2.60547
15.1199 3.01478 1.29747
6.22754 1.72089 0.766488
26.2025 12.6446 5.13322
16.5547 6.27652 1.78272
25.3773 6.23245 1.8837
24.4412 4.01116 1.52429
40.267 10.4979 4.1199
46.206 14.1091 5.39559
56.0841 17.0474 6.11667
12.9148 5.61694 2.7696
46.572 18.416 6.8698
16.9492 9.27306 2.92018
22.338 14.6042 6.56894
35.3201 11.0135 4.73799
18.0276 4.4011 1.18791
21.8474 7.33583 3.29418
15.3648 6.15333 2.20412
30.8079 6.93727 2.46714
13.4964 4.05113 1.81856
18.176 7.0923 2.72289
8.30659 3.49451 1.44695
12.2191 3.44215 1.63237
20.8655 5.42214 2.66068
28.7511 13.4454 5.52497
27.9909 5.10114 1.89293
14.2336 6.12787 2.59947
8.73937 5.76953 2.9204
31.4724 7.88687 2.93418
25.7744 8.9274 4.14613
14.9987 5.692 2.83152
15.9444 4.7777 1.82491
12.7151 3.44027 1.8519
20.8388 5.32437 2.339
24.2217 12.5703 5.21262
7.80765 2.2615 1.50728
24.423 13.5766 5.60566
22.1873 9.15414 4.97857
23.1092 9.53552 4.53831
48.3538 12.0984 4.32138
25.8895 8.28699 3.84392
13.2027 6.67477 3.13796
18.0316 6.44981 2.99851
22.2049 7.16568 3.17707
18.5517 9.86207 4.89558
8.94157 2.76365 1.47427
12.491 6.07976 3.01425
15.7946 6.77935 3.96542
13.2102 6.5557 2.27209
6.6686 4.52582 2.37812
13.6169 4.98323 2.55688
13.5643 6.09179 3.29695
18.5843 5.92606 2.80964
15.5351 4.14787 2.40585
14.7663 7.15707 3.50834
12.242 3.59418 1.00619
26.3388 11.8371 5.72889
18.7709 6.68254 3.56025
16.8986 7.17476 3.36393
11.0283 6.32159 3.00968
10.0955 8.95723 4.59027
20.3404 12.6774 8.26713
23.8709 7.30639 3.97421
25.3954 10.3708 4.95055
15.6496 8.65713 4.69912
3.63143 4.02734 2.84247
16.3982 6.35179 3.60847
13.5608 1.59485 0.783202
31.8485 11.0043 5.91987
30.7222 7.1069 2.36202
30.1748 15.2039 9.38379
37.0965 12.6225 6.43383
10.09 1.80339 1.1283
14.745 2.49331 1.29006
27.0182 10.1168 5.16885
22.5269 9.21972 5.11281
18.49 7.62583 4.97867
14.2466 5.13345 3.20491
12.7611 10.6659 5.96127
12.5756 5.82071 3.02552
10.9147 2.51445 1.36321
9.55678 4.27586 3.00236
4.21316 3.99891 2.73111
10.1299 2.67168 1.38595
23.3428 7.95848 4.41963
10.0163 4.13136 2.33066
9.19957 6.63287 5.46618
8.65001 3.30466 1.72553
5.95341 5.07839 3.48421
24.9136 14.0499 7.34973
22.3741 11.2886 6.87972
14.005 5.1564 3.88613
22.6885 7.43402 4.30716
2.03215 1.57524 0.817618
7.91487 3.20656 2.09944
10.5084 7.18406 5.50222
20.5677 12.5016 7.22061
6.43058 11.7166 10.3309
27.5015 15.3903 10.3218
11.4556 4.89726 2.56208
9.48092 5.36025 3.81661
17.6794 5.10995 2.15716
21.3939 10.8741 5.51403
6.90844 7.61092 5.62329
16.9801 8.02329 4.22385
8.75803 3.10834 2.32255
6.82324 6.68065 5.42794
15.4139 5.68165 4.23575
16.498 5.74005 3.33303
20.3106 11.1959 7.54302
22.2965 11.0662 7.30582
4.14516 1.30888 0.497212
8.85436 6.65545 4.26996
11.6434 3.90977 2.54608
9.14308 7.83186 5.99622
15.1032 8.02115 4.83296
13.0318 5.04948 3.38339
10.5237 6.65456 5.95759
16.7635 7.92373 5.16241
20.5665 11.3116 6.98688
7.37524 2.30451 1.6422
8.39986 4.10813 3.7373
9.62296 4.92231 3.19777
10.8976 9.4738 7.5627
8.62528 2.83391 1.77389
9.40635 7.77003 5.40607
13.5754 4.82882 3.52404
5.91352 3.5082 2.70858
9.14184 5.80901 4.52627
15.7775 6.72183 5.6148
8.69203 2.55299 1.05498
13.8439 6.02263 3.96835
5.68697 4.06783 3.27852
5.55145 4.43568 4.0124
14.4376 9.92642 6.76104
12.3181 8.11647 6.92094
11.9546 8.93364 7.91124
16.7554 4.9844 3.27285
14.4356 9.68081 8.83819
18.2273 7.66609 4.55631
18.6988 6.76113 4.31181
10.8984 6.73734 3.96887
8.04532 6.35873 5.25501
10.3729 4.14023 2.94045
6.47143 2.14401 2.38911
5.85433 2.46268 3.15162
13.4528 8.3157 5.94553
5.39165 4.32747 2.74574
9.67542 10.7072 9.56388
11.8152 5.20529 5.31416
16.6685 6.98984 5.57954
8.11308 3.33545 1.79312
8.39684 11.5567 9.992
11.6846 5.07109 4.13694
3.25131 3.35726 3.33415
7.00663 6.32272 6.93618
18.3241 7.90037 7.24664
20.8886 8.67304 5.47062
13.5012 11.8635 9.426
8.17678 7.96612 8.38657
12.7198 2.51777 1.01782
18.0065 10.2903 8.04711
3.36498 1.52215 1.139
10.4535 6.78091 5.52202
4.60343 4.21428 5.10564
5.4699 4.7381 4.97124
18.2802 8.64336 4.53848
8.07078 8.06805 7.34073
18.6963 14.9904 13.8273
11.7508 3.5466 2.75254
20.3005 11.9518 10.228
6.27144 4.92624 4.15918
7.80779 2.14702 2.43284
12.6933 9.30711 9.85382
13.8995 7.29928 4.36702
11.2401 7.0724 6.63489
8.6005 6.151 6.54908
4.24452 1.38092 1.57454
5.9865 5.71076 3.32683
3.60951 4.62308 4.22047
8.60368 4.2098 4.05086
5.9879 2.99839 3.4081
4.55253 4.11786 4.3772
4.82669 2.44669 2.63432
8.95226 5.45535 4.4996
9.54762 7.88479 6.36029
2.92627 7.63633 8.09091
10.615 5.95834 6.35865
4.49439 1.23547 1.48605
10.181 2.90686 2.13691
5.32122 1.88528 1.38141
13.4357 8.69564 8.33314
6.89371 6.937 9.26311
12.2217 5.3887 3.36631
3.52287 1.33599 2.08978
5.84593 4.61738 3.42776
6.69476 11.3984 15.2133
17.6945 11.4775 8.93393
4.43268 4.78804 7.0339
9.35961 4.81249 3.29938
6.21423 5.25223 4.38408
5.20429 1.24585 1.09175
2.90647 3.25355 3.94518
8.72184 3.14661 2.41154
10.9804 9.44724 7.95615
3.09716 1.23862 0.999596
2.35671 2.93513 3.48146
4.20068 6.02994 5.5038
5.20367 7.70649 8.54146
6.94571 4.27367 4.84202
8.92272 2.42408 1.56683
13.0013 14.1976 13.8267
6.03682 1.62617 2.16439
8.74604 4.87418 4.16063
4.03414 4.83736 5.34372
4.04132 4.34509 6.19488
7.68645 3.99904 2.93799
3.61589 0.978378 2.3009
8.85991 5.64299 4.52169
4.80152 3.57722 6.26537
16.4122 9.41789 8.76829
16.558 11.9822 10.604
3.9211 3.92575 5.07747
6.78853 3.56532 3.48523
4.73858 4.44198 4.88781
6.95883 4.68253 4.19826
2.28946 2.64755 3.42116
8.10412 3.81099 5.33526
8.68874 7.49195 6.35316
7.85164 7.54206 8.58254
4.21641 6.23758 9.39172
8.18624 10.1796 10.2949
5.39537 2.59773 1.13407
4.89835 3.47499 2.92709
5.41822 4.44552 5.77992
7.57212 6.39328 6.83953
14.0262 14.8059 15.4654
3.21893 4.32872 6.43157
4.16734 3.06203 5.65077
9.47023 10.5799 15.3275
8.86173 6.54346 5.0802
4.43215 3.76825 4.27721
11.2378 8.45577 8.13155
11.2135 12.2347 13.8454
6.01775 8.01345 11.8609
10.181 6.60338 6.00553
14.969 14.184 17.4496
8.24344 6.81779 7.31721
11.3371 9.50123 9.38923
6.97975 8.06302 9.33546
6.36603 6.75168 7.54229
9.54368 7.884 11.5856
8.25961 9.09241 10.1606
1.88295 4.81654 7.89108
4.86392 1.30624 3.41924
9.37257 5.03514 3.70671
4.53734 4.6797 5.42235
14.6525 10.6825 11.0839
4.17987 2.57343 4.30876
1.3481 0.974159 1.65141
8.45521 6.0692 7.29512
1.53148 2.82042 5.22358
9.0273 6.93369 8.83827
8.03873 7.09831 7.26485
5.85209 6.02968 7.40096
15.0464 14.2483 17.2006
2.78421 4.75636 6.41892
0.865135 1.72174 3.83968
9.3476 7.62725 8.93941
5.19933 7.06146 8.57316
4.63491 3.44871 3.23681
4.30374 4.70656 7.10346
7.19666 6.04 8.05437
4.45256 6.42636 8.51018
8.86877 6.51533 10.9295
5.71546 5.11558 3.91861
4.01695 4.72883 10.1972
5.19701 7.59 9.31913
9.96361 14.024 10.5628
3.91018 6.96422 7.93816
3.49669 7.84809 11.2852
2.14982 2.14375 5.00354
6.1633 2.18289 2.0487
2.5181 4.11353 5.8713
2.37356 1.58877 4.58427
12.0685 17.0352 22.1276
8.20025 5.03162 7.22293
10.3209 7.97338 7.00275
3.42651 5.78286 9.44403
6.23198 3.37582 4.52942
6.06862 7.64814 12.3392
9.30653 6.24194 6.39489
11.6144 11.797 18.4484
7.06917 6.40727 6.60174
2.98149 3.33558 3.97517
4.27204 9.60982 14.3842
3.16893 4.05754 8.26473
10.5407 8.83382 7.79064
2.38319 1.92615 3.16989
3.5596 1.99315 3.3413
3.33083 2.27181 2.59209
3.04945 6.8992 10.6855
5.09955 7.77869 11.7737
4.51635 2.76669 4.36262
1.47474 1.92191 3.33613
3.00844 2.66823 3.57347
6.56219 5.30799 3.78672
2.77099 8.78233 14.3234
7.28731 7.44953 9.70129
4.39914 5.19702 9.25617
7.75287 10.6581 12.2395
3.58537 6.65892 10.2485
5.09383 5.34089 7.2319
3.71588 5.85492 11.407
3.32022 5.69112 10.1995
7.22622 7.09459 8.03878
3.0919 3.02463 4.06195
2.57016 3.06496 5.53897
3.41496 0.973603 1.91777
6.28412 10.8862 16.0933
7.29122 4.10869 5.16668
1.17149 2.59169 6.42441
5.1669 2.80539 1.78382
5.65166 8.45385 11.9087
3.56402 2.97539 4.62726
2.34741 4.85337 8.39671
5.214 4.23375 6.54782
2.52848 1.99498 1.90215
2.65632 4.04564 6.69567
2.67262 3.89748 6.80983
5.88826 4.83483 7.24235
4.92464 4.04922 6.63826
4.27257 5.38325 6.31042
2.31992 8.26147 17.0766
9.8487 7.03706 7.32314
3.32004 3.85205 7.1042
3.01136 2.00416 3.80472
5.47145 4.94641 7.88415
4.91374 2.29574 4.34587
4.0668 2.42029 3.15149
4.89118 4.13701 7.14824
2.95749 3.40396 9.94886
11.549 12.7015 14.4062
3.10289 1.91329 4.54097
6.28172 10.1289 13.0164
3.11027 5.1169 17.4269
17.4149 12.9742 15.9907
8.52133 6.16921 5.61557
4.74995 3.30941 4.01046
4.38014 4.72262 10.1537
2.38405 2.40544 6.85702
10.8219 10.3053 12.7737
4.76819 6.46307 9.33304
0.994174 0.817075 1.92519
2.81459 6.58707 11.7014
4.77577 3.46355 6.92252
3.94173 3.26652 6.30643
2.7289 0.973831 3.74118
10.2473 9.46544 12.6009
2.25734 1.2722 2.46648
5.557 7.21633 10.6305
3.01585 5.36475 11.4824
11.4711 11.8872 14.6793
4.72415 5.07068 7.90202
7.8573 11.9669 20.6004
2.08758 2.4255 3.31353
2.85064 1.19127 1.188
3.79118 5.8397 11.9389
2.46857 2.60846 4.47983
4.85369 4.18321 6.59627
3.6842 3.74384 4.39154
1.77645 1.62991 4.02054
3.7731 3.27101 6.73444
1.43494 1.82502 3.81559
4.39446 4.18152 8.0026
3.40871 4.18675 3.91577
2.822 10.1848 21.1136
9.70262 8.19184 12.6155
5.37489 2.68575 2.43715
4.66411 5.6017 8.15775
6.03637 7.75901 14.5211
1.35062 2.62403 8.32805
4.29578 5.41947 10.5391
4.883 6.24956 8.24768
10.2608 12.5168 21.069
2.52046 2.61155 3.83824
3.06295 3.06031 5.04795
3.30854 3.61434 6.35189
3.43426 3.95866 9.29181
2.43172 4.06507 3.77016
5.12237 7.14641 13.3407
3.19842 5.0494 10.2956
6.0973 6.71041 11.7503
1.67517 2.4672 2.80452
3.71124 7.34923 14.4565
3.75032 6.72118 16.8236
4.20497 6.44453 6.63029
3.16046 4.4347 7.16551
2.38773 5.25818 14.6857
6.57181 6.95443 6.07397
0.590289 4.79913 14.7102
8.06932 9.08226 12.4811
3.03785 3.35324 12.1252
6.11969 8.92229 12.4316
4.32969 5.07077 7.70808
3.27614 9.25447 17.1161
4.11348 3.97581 7.40984
4.06239 4.7932 8.1993
1.17262 1.58102 5.49342
3.54735 4.61661 10.4402
6.09177 6.25933 7.41897
3.91163 4.80791 13.068
6.46987 5.33434 5.95093
2.86765 2.64402 5.0626
3.89172 5.26576 7.6044
2.16636 0.798081 3.12188
4.61083 4.62243 9.49665
2.9069 5.01278 8.25812
5.26133 8.82108 15.1142
1.59665 2.16148 4.09891
2.56245 2.35254 6.02838
2.63969 3.19804 5.7314
4.1831 5.62313 11.3921
2.16325 2.36659 6.95663
2.20228 2.06866 5.67892
3.89408 6.87542 7.43084
3.95277 7.20569 13.6833
3.60666 7.01406 15.1546
2.18635 3.75311 8.15865
3.19367 3.37756 8.81067
4.48646 5.6898 10.643
1.88411 5.1865 7.13991
0.654836 5.9177 16.6911
6.14472 8.36987 15.9099
4.04317 1.95881 5.7005
5.06927 6.60185 12.9454
3.50936 5.77209 7.81316
2.64921 2.25821 5.04591
2.58109 2.23846 7.46249
3.90027 11.2245 19.4362
5.12333 7.95854 24.2909
5.77373 4.27248 6.65528
4.59091 3.77104 5.7004
3.35259 3.17188 4.50242
2.85503 5.6631 8.14071
4.00918 4.02898 11.0446
4.91665 7.0934 8.64534
3.44523 4.79875 10.1657
3.86924 4.87949 9.97748
1.46911 0.953093 4.22602
4.41381 5.50285 12.9287
3.94089 4.81587 7.2173
2.58589 4.01534 9.35717
2.30606 2.58712 5.92699
3.57925 7.67581 14.9605
4.48845 3.32473 6.07996
2.37904 1.50187 7.0744
5.08454 4.96817 5.59396
1.16955 3.92331 10.5964
3.0656 4.70622 19.3524
4.01945 5.34516 7.37292
3.18029 11.4755 28.9812
7.62953 4.23129 2.4842
2.28091 1.78481 3.20107
0.769754 1.91079 8.47979
3.96592 4.93677 7.05568
4.18864 4.14724 8.96681
3.02188 3.33882 5.52463
4.14531 5.84684 10.3166
3.12167 4.2108 9.1817
1.81738 2.27135 7.36028
3.4623 4.1282 6.70902
3.20946 5.52632 14.0827
3.68329 4.27593 9.43818
3.94155 5.26929 8.50775
3.56966 7.07661 10.8669
3.60571 6.91489 17.1083
5.64875 7.51437 12.8723
2.23648 4.58306 13.1247
4.19246 5.59733 8.92147
4.7349 5.07751 9.33177
3.80254 3.98273 7.84362
2.27324 3.51949 8.89267
1.99058 4.58514 12.2464
4.23997 2.61668 5.17074
3.09371 2.82714 6.01145
3.08842 7.72116 17.8113
4.31558 4.72725 14.4243
1.20571 2.80068 2.97044
1.42 1.81782 3.06382
0.876417 1.28893 6.33109
2.33968 2.8077 4.21988
1.89393 4.19479 8.50011
1.27341 5.80442 16.0362
4.90667 3.37955 10.1865
4.84548 5.12325 9.95467
3.72947 3.84 9.30068
4.66059 5.67352 11.4527
1.38031 2.15128 9.21475
3.8989 5.62113 3.74105
3.62762 5.75318 10.7669
1.52637 3.64953 6.7725
1.22636 2.45011 4.45189
1.8657 5.00643 13.4452
3.31959 1.58785 2.31665
2.67425 5.8785 17.74
2.55259 3.68617 8.47987
4.42372 4.70631 9.60945
3.05478 7.9823 20.1073
1.64527 6.04047 12.6227
3.17667 5.0256 16.674
3.22142 2.64592 6.41847
2.51346 0.876325 1.3465
3.19813 3.45996 8.41806
4.34071 4.18652 7.24499
1.62532 5.5198 16.3252
4.38494 5.66057 6.8155
3.06109 6.54047 22.9069
3.53056 4.8747 6.15146
1.18559 3.11549 8.18412
2.87317 1.66115 6.52053
3.07743 4.8143 11.7942
4.39506 4.16082 3.58975
1.4468 2.59412 8.29841
1.73483 4.8892 10.4568
1.82718 2.73365 4.39645
0.842765 2.5193 6.27263
1.37209 1.20757 6.05326
3.35006 2.03108 2.46254
1.8131 3.10578 8.35856
3.26469 3.53115 7.64776
2.13356 1.42608 1.22392
2.46866 3.1001 9.65619
2.88663 6.67762 19.6496
7.76574 10.8541 18.7021
1.89879 4.1053 13.8435
1.34778 1.15473 2.0291
2.56211 6.09472 15.7666
2.36182 4.55288 10.0412
3.47656 2.87389 4.00632
1.72024 5.18635 17.0904
3.83011 5.04644 8.96372
2.04906 8.41004 28.1273
2.96381 2.56331 5.52616
1.16782 5.59595 10.4872
1.54134 3.05695 18.9268
6.2022 11.0915 17.1782
2.10776 3.90323 7.91659
1.85571 4.58288 10.0002
1.18076 2.16964 4.1081
1.25818 4.43315 10.5414
2.74213 8.16868 22.094
2.55517 3.3588 9.60463
5.428 15.789 38.307
3.52781 3.99584 11.0283
3.78476 4.35608 15.8306
3.25127 2.78086 7.0657
3.89635 3.57361 7.37782
5.18759 8.29089 21.5051
0.900819 3.75555 12.5782
2.06376 1.10268 7.14024
3.14698 2.56988 7.86089
3.77077 4.32218 2.51236
2.22088 6.62129 17.4874
2.0095 1.88494 3.11822
2.66792 2.57405 11.0345
4.81189 7.21793 17.0161
2.09657 5.24318 6.30379
1.60631 6.46629 17.2719
3.61389 3.75994 8.62656
3.16841 6.08011 18.0138
1.52775 3.41635 4.66667
1.47946 3.97447 13.3424
1.98855 3.14065 16.1371
3.22242 5.43555 9.87812
1.64275 2.37029 9.42211
4.07799 7.90739 12.8285
2.4612 7.63581 17.8845
2.10087 4.71537 15.8721
2.20162 10.0625 33.7302
5.41949 5.28542 11.4249
2.55312 2.99169 19.7734
3.19429 5.65601 2.39521
1.8204 3.59789 4.62999
2.44975 5.87176 17.4068
2.644 8.44308 21.9435
2.04903 3.20977 5.92604
2.55042 3.70046 8.53673
2.99495 5.34384 18.6422
0.697402 1.96129 7.48352
0.686848 0.639869 8.73604
0.845218 3.42132 10.4617
2.58397 8.75474 13.4208
1.32302 2.39839 12.5293
3.18095 4.20466 4.55054
1.03884 2.56196 10.9345
2.17343 6.59371 13.8651
3.5015 7.14314 20.5791
1.36425 3.39405 13.7619
4.68538 11.9434 24.4285
2.80132 4.06866 10.6984
2.615 7.20823 22.263
2.78054 2.55678 4.47609
1.93418 4.93397 12.2257
2.06383 1.37445 3.36719
1.88051 1.9121 5.07056
0.740233 0.824854 3.56739
1.06705 2.46109 9.15379
2.91832 5.84181 17.1457
1.48773 2.45218 5.15018
1.89205 4.88665 16.5428
1.66198 2.03884 3.19531
1.33289 7.8261 17.6302
2.54729 3.01577 5.77832
0.505113 5.15849 18.4869
2.04759 5.98476 17.3061
3.49911 6.72235 18.288
1.85806 1.61697 10.1238
2.75039 1.67653 8.13762
3.00625 9.10233 19.6172
2.4773 4.07443 14.8333
2.67295 1.75562 9.06618
4.92089 8.19063 13.9912
2.39823 7.80094 22.5815
4.89136 4.516 7.21974
2.07757 6.20203 16.5263
3.59697 8.37512 23.6047
1.75463 2.34418 7.03399
2.70613 4.89479 11.5976
1.82144 1.19703 3.91409
1.36593 1.19174 8.87144
2.4086 7.29602 18.9348
4.35104 5.24014 9.7595
1.06239 2.29262 11.1417
4.22566 6.14951 14.2107
1.94764 4.19446 13.2698
0.88028 3.84355 15.8522
4.28709 3.82126 5.65022
1.0039 2.07908 8.78219
2.10111 5.00741 27.9347
4.0818 7.62896 5.76688
1.39141 2.6927 6.72708
2.57046 3.03709 5.29848
1.55355 3.66126 11.4561
0.740327 2.2308 8.16628
1.05517 3.25314 15.2289
1.66712 4.07887 6.05872
1.80285 1.47037 11.2436
4.63107 9.84224 25.0662
1.23987 4.99093 16.2668
2.32291 2.47934 4.6299
1.08425 3.25339 9.93573
3.65045 9.42345 14.8511
2.82319 6.56761 26.2489
1.05197 3.3839 4.77438
0.903292 2.94116 10.37
1.57412 4.63777 7.13748
1.38504 2.20999 5.978
1.17888 5.10301 10.144
1.13652 2.54388 15.2539
2.15465 1.27989 6.29627
1.28556 2.39386 4.78397
0.885153 4.97938 17.2034
2.51233 3.57302 8.62593
2.1303 5.1685 15.9922
1.6702 3.69454 14.3828
2.82995 6.42067 15.1462
2.04403 4.81235 22.0724
3.03106 11.7259 32.2735
3.63093 5.67174 20.8365
3.60864 8.75755 18.3866
1.46337 3.69396 8.09583
2.31541 3.38953 8.41276
2.19646 4.65736 13.0888
0.941999 6.63731 24.3749
2.44617 2.09081 11.2338
3.98753 4.97148 11.8361
1.74782 5.44105 14.4558
2.89409 3.09165 21.0085
3.79585 6.39661 14.9793
2.81497 6.30628 14.6648
1.97728 2.3963 3.6566
0.888372 1.66657 8.94213
2.92365 7.75525 13.8727
0.632603 1.71977 10.3846
2.29655 4.67595 14.9073
1.43214 4.96372 13.3175
2.29664 4.06758 9.89272
3.00228 4.21484 9.74746
1.17364 5.50522 16.6912
2.25535 4.28401 14.8999
1.54521 5.80398 10.7078
0.673595 1.92294 9.62303
1.93042 1.39672 7.67385
2.65351 5.52303 15.8845
2.27486 3.56162 12.8839
2.57792 5.20747 14.3839
1.22417 1.5785 2.95756
0.782415 2.51988 15.0041
3.98372 1.90205 2.79792
2.1173 2.9827 7.03937
0.811595 2.36427 10.3808
2.14937 2.81576 9.44107
2.08934 3.88492 13.5098
2.78384 3.6036 11.2687
1.24839 1.25243 11.0294
2.88713 4.28906 8.89138
2.15786 3.55174 13.1931
1.3209 2.09084 3.96025
1.85285 2.72225 10.756
1.99891 5.2082 10.0418
1.10635 0.949015 5.88266
1.69926 4.61411 9.54159
0.297598 1.23892 13.6928
1.42841 2.66437 4.53065
1.97144 4.8376 8.60551
1.07193 2.38365 13.1066
1.70675 1.86835 3.89088
1.75226 7.26985 17.809
1.02171 3.83664 25.1517
5.02289 6.45872 18.6394
1.24615 2.45502 10.5198
1.18324 9.27786 19.0561
1.89087 3.39778 17.4442
3.4332 5.34524 14.5811
2.79471 3.41621 8.46024
1.06868 1.87113 9.27248
2.39604 4.22629 10.5989
1.79362 3.72945 7.54872
1.3042 6.51967 35.3692
3.45821 7.25557 16.1244
2.80711 4.28801 6.47562
1.70774 9.50965 44.7277
4.31981 7.55474 16.5942
1.98153 6.06487 24.5015
2.12003 3.21214 9.07451
2.55191 6.45492 12.7247
1.19954 2.50909 9.94117
1.86964 2.39245 8.20829
1.97542 2.75659 5.6444
1.1433 1.96616 17.4773
3.4562 6.73138 8.04985
0.738114 4.57839 15.471
1.82721 2.44434 12.4879
2.14272 4.79349 14.3841
0.819649 2.80265 18.7595
1.99843 2.18488 13.3618
1.53904 4.00748 20.8453
1.83173 5.20665 6.99366
0.869914 4.87168 8.27008
1.4065 1.00617 7.14722
0.75995 3.4762 18.9681
3.93863 7.69693 13.6507
1.36586 3.26388 6.24236
0.478115 2.26008 10.2995
1.60986 5.02056 11.5273
1.22533 4.46535 20.8585
2.38311 3.21796 16.0125
2.24336 7.85083 14.9759
1.59421 3.35724 7.48506
1.65401 6.35335 18.691
2.01185 5.73873 17.0935
2.36546 0.600482 4.35075
1.49499 1.34599 6.95868
0.992894 5.16694 20.4243
3.22349 6.85777 28.6206
5.07387 10.6456 34.4318
4.71483 6.823 14.5339
0.59571 4.044 5.0376
1.0571 1.65744 8.38312
1.91346 2.96773 4.11517
0.689979 1.79603 7.07546
0.884224 2.18586 23.5842
5.4039 9.10595 21.7246
2.11649 5.46858 16.1724
1.42346 0.966662 2.76478
1.10884 1.86417 15.4622
2.58425 7.46874 16.4723
0.987543 5.70784 29.8238
2.30917 1.59065 4.66976
1.10455 2.30847 8.4599
2.04164 3.17223 27.3638
5.10283 8.61956 17.8067
2.42031 6.71678 11.7633
1.54701 5.1805 23.3994
0.903707 3.08554 15.2585
2.48765 6.11016 17.0267
2.9851 6.09588 19.4649
1.61891 6.66618 19.1298
2.04636 3.72689 7.08932
1.46974 2.51281 8.41786
0.638642 2.46327 7.62239
0.867686 5.72036 30.6725
4.48955 5.32913 8.77454
1.22973 0.645962 6.55892
1.1802 3.30157 20.8765
3.31353 5.3401 11.0398
2.39247 3.35979 17.7809
2.41645 3.17495 11.4406
2.89452 5.31925 6.97267
1.3136 5.80812 27.4278
2.57438 7.94763 22.2191
2.4706 2.74097 13.1867
2.13768 5.95281 8.13157
1.22268 1.85166 7.90983
1.01355 4.39709 16.0145
2.42396 1.99256 4.55845
0.896297 2.88332 10.5471
1.77838 3.25211 11.9756
2.05144 2.72309 4.16561
1.43483 2.40273 7.64958
1.39954 6.19954 17.9419
2.22177 8.48837 18.6606
1.13141 1.30554 6.41079
1.40721 3.16296 21.9398
1.80668 5.94758 14.5305
1.49093 2.67974 7.72604
2.14979 4.27469 11.8878
0.890944 2.857 8.84483
1.06102 6.93506 19.212
1.28819 1.75404 8.22013
0.630472 4.11852 14.771
2.11286 2.52683 12.8731
2.05695 3.71348 13.5479
1.13422 3.10769 17.7742
2.20967 2.15527 7.72593
0.31244 3.30094 8.49349
1.37115 4.13189 20.8573
2.45481 4.78142 21.0773
1.19397 2.34821 11.9061
2.35611 4.46303 8.50093
0.86692 3.87541 8.02467
0.38208 2.58122 26.2913
4.21845 9.81988 38.1531
2.07982 10.3647 16.3404
1.26581 3.39255 12.8198
2.08772 5.55499 18.4548
1.96986 6.08386 17.7749
1.965 2.33413 7.55217
1.12909 4.24196 17.822
2.12964 3.02555 16.4219
1.86293 1.96559 7.44731
0.661899 4.20689 21.67
3.1179 5.80739 17.3551
1.91094 3.49653 19.4363
2.71708 1.99877 1.57352
1.13764 3.04152 10.4281
1.0072 3.54717 19.1021
1.83862 1.80691 17.842
3.26168 5.27706 14.5269
2.66154 4.57835 11.7444
1.37634 4.79335 12.4165
0.750049 1.70092 5.81066
1.22526 2.25925 5.13002
0.944513 1.82897 11.2666
1.39666 2.00081 10.0251
1.54253 12.3316 38.5806
2.50405 2.77651 9.7699
1.01062 3.74728 18.1629
2.112 4.77478 8.99329
1.2614 1.64004 9.60749
1.66303 2.03076 15.4484
1.44965 2.94169 23.2931
1.89637 10.8373 24.483
1.51812 5.18343 16.9633
1.15968 6.60123 14.1957
1.86289 6.66128 29.5483
2.73771 5.72594 5.77559
0.973166 7.96422 23.557
2.63594 6.43568 56.6361
5.86303 5.53492 8.74251
1.88786 3.8279 24.1309
2.99473 7.22472 25.6719
4.04679 6.00507 12.7828
0.591709 6.1395 31.9035
4.91793 5.116 3.43848
1.50095 5.78145 21.3881
2.10855 2.78807 10.853
1.76586 1.46651 5.72173
2.55565 9.07116 26.2911
1.15543 3.14475 19.1294
1.75785 5.27616 23.0853
2.13614 3.42818 8.83094
2.11223 3.55887 5.43422
0.905401 0.822611 1.60786
1.0167 4.14395 19.2407
2.31881 6.88266 18.3954
1.83339 3.87935 16.1895
1.6686 6.76175 29.0945
3.14414 5.2223 10.0248
0.566218 2.84851 20.8167
2.78824 5.89101 10.7554
1.06167 5.68979 24.0389
2.08429 2.58998 18.659
2.24019 5.21841 7.31015
0.63789 2.71611 10.5807
1.3511 3.36324 23.8922
2.69545 3.23908 8.94639
1.79252 6.03303 25.6085
2.19299 5.91321 9.79098
1.602 4.25303 22.4306
2.63835 3.27849 17.0971
1.79904 6.26 12.9381
1.92005 4.51087 21.7318
1.35397 5.21188 24.717
1.29768 5.78261 21.8173
2.90129 2.99563 7.07238
0.848848 2.82317 6.63521
1.62338 5.3387 16.4607
1.2714 3.89496 40.0081
3.65708 10.2772 18.5837
2.3555 6.76984 25.929
2.59253 4.9494 14.621
1.27144 0.723359 12.409
1.61014 5.24348 28.9419
3.52389 5.37946 14.5418
3.13726 5.0617 15.5237
1.81269 8.50814 20.9659
1.81774 3.04269 22.8413
3.39743 2.73208 4.6976
2.41577 8.31954 22.3529
1.33436 2.6431 9.37931
0.0895742 1.43081 15.5356
2.17728 4.82733 22.1753
2.00252 8.14376 22.7762
2.20019 3.24169 4.53083
0.677512 1.06737 12.3589
1.31368 6.42734 19.9515
2.16256 3.9913 11.7416
1.19953 2.68484 27.5582
2.07829 7.85326 41.1028
2.10421 11.5106 18.8633
1.82554 3.33235 10.9715
1.19975 2.32264 15.1209
0.934116 3.00707 23.7192
3.47158 6.45585 9.32936
1.18281 3.20289 16.1488
2.31389 3.88521 5.36646
0.602414 5.41459 14.3239
1.32971 1.12767 13.3452
2.17024 4.09578 10.4626
0.323607 3.90171 20.1416
2.61923 7.67978 13.8737
0.717913 1.57715 15.2177
1.04775 3.04042 7.75878
0.654444 2.12519 8.85518
1.11996 2.22302 11.8227
1.5747 8.8056 44.7876
2.43949 6.70346 13.089
1.98025 4.23254 18.7187
1.3256 5.92885 20.2387
2.44902 3.25078 9.74719
1.95469 2.93662 11.1303
2.2515 2.06115 13.1906
1.92162 9.65683 42.4197
3.57903 6.63313 11.3581
1.06054 4.88446 23.4092
2.50294 3.98134 14.4988
2.08016 5.36945 24.7342
2.49805 4.69565 25.3131
2.70143 1.84462 9.57292
1.75524 2.59944 14.0647
1.73652 6.23246 9.85449
1.70653 4.66653 13.4992
1.36517 6.83798 13.959
1.313 1.9313 7.25672
0.498373 0.603789 7.89652
0.309714 1.73314 9.43683
1.12622 3.01919 8.11779
1.21753 2.41044 10.7985
1.44971 3.46 19.1665
2.37542 2.72321 1.35715
0.605132 3.53777 17.4053
1.74186 0.795845 18.0668
2.886 10.5598 17.8824
1.20222 1.58994 20.0263
1.39941 7.17025 16.9965
2.33076 1.5679 15.1394
2.06275 4.79455 15.2587
2.20597 8.16471 26.2514
1.07245 1.45936 14.5868
2.0243 5.04557 8.07995
1.21435 2.55289 12.6814
1.84188 5.09835 21.0869
0.759507 2.41913 11.4381
1.88543 5.80171 25.2904
2.91355 5.25066 14.7451
1.32819 1.42216 6.47802
0.606075 5.32876 23.9825
2.85141 2.54862 4.46524
0.895625 5.12225 21.6349
2.43048 3.03698 16.4864
0.979694 4.79983 15.1697
2.05505 2.80415 20.9449
3.00667 4.40962 10.9711
1.0784 2.98856 9.70186
0.73518 5.11409 20.4953
0.899914 3.02904 24.0193
2.36701 3.98186 10.9422
1.24895 5.35763 23.2182
1.73841 1.9065 3.78365
0.556073 2.09663 21.2942
1.99097 6.44974 17.4224
2.00382 7.83131 16.5332
1.24972 1.53838 8.50829
0.988489 6.71225 21.1572
2.73924 4.86006 10.7989
1.12228 5.82056 31.4947
2.4152 3.80151 18.6032
1.91719 6.12445 28.5668
1.73615 4.88039 19.4465
1.81616 4.54487 7.94248
1.99207 7.30166 34.9551
2.45385 2.61082 10.4884
1.42897 5.62192 20.6977
1.53716 4.21259 7.36176
1.19021 3.10782 10.5231
1.16614 1.60987 9.35749
1.88447 2.97166 12.6589
1.45474 4.06623 19.0696
2.88178 7.48033 21.0229
1.78668 7.27735 32.2266
1.72576 6.04771 21.8224
1.12407 1.36717 19.4626
1.19051 0.881099 11.404
1.26229 2.09745 14.5366
2.01259 8.76262 18.6049
1.12757 4.29086 19.737
1.52137 6.12393 14.8099
1.8457 1.09626 3.15122
0.384434 0.721436 6.47188
0.825401 1.24004 5.07191
1.52247 5.77741 24.5448
1.41564 2.4398 12.103
1.64624 5.0401 17.6592
1.03043 8.11082 22.6357
2.58493 3.21761 35.7684
4.12504 5.92299 19.3425
2.52814 6.71833 23.8412
1.68484 7.08923 14.249
1.00856 2.56275 6.72536
0.484987 2.96476 12.9674
1.20844 4.25958 15.1925
1.37977 3.22338 13.1591
1.34213 3.04213 9.06937
0.790103 3.23064 20.4608
2.04916 3.35251 9.6828
0.284958 1.57175 5.9441
0.629329 3.05212 22.0618
0.880884 6.43529 10.1638
1.04285 2.22671 17.1964
2.2128 5.56567 12.9044
1.92927 2.45217 10.0534
1.18458 2.08445 23.9184
2.55002 5.68565 6.14019
0.65372 0.92711 4.58292
0.888238 0.560409 5.06994
0.761886 1.49337 18.6273
2.47259 4.16065 7.41012
0.904801 3.44679 10.344
1.65991 7.76396 28.2078
1.63152 1.40296 21.4798
1.94741 4.97473 21.4873
1.90621 5.45791 8.22732
1.12042 2.85477 5.88965
0.792715 1.82506 19.2752
0.677529 5.5297 18.2091
2.11829 4.60644 18.3844
1.41577 2.76691 2.94439
1.08326 0.576267 24.4495
3.2793 7.11701 4.43888
1.24443 8.21862 34.795
2.10684 2.30245 8.27782
1.95977 6.21804 22.9877
0.699155 5.03433 26.7661
1.51881 4.61062 16.493
2.51041 5.51212 14.7929
1.32814 4.11529 9.81729
0.754318 3.5336 32.9159
3.06558 8.67679 18.1766
0.936347 3.00174 14.7109
1.22796 3.60673 17.4608
1.18569 3.2096 16.3038
0.894342 3.2405 12.6492
1.18476 8.44917 28.3423
2.2597 3.51204 20.6119
0.597834 1.46418 8.09011
0.89139 3.49862 10.509
1.4215 6.33295 18.0722
1.45571 3.93591 26.7599
2.06169 3.4687 7.04966
1.43328 1.26341 7.93294
0.568575 5.88431 18.8866
2.32765 5.08325 18.2408
1.14479 2.69621 13.1531
0.673703 2.02223 27.3208
1.94815 11.2667 22.2934
2.80211 0.937863 7.93478
1.13296 1.9271 20.7323
2.80426 6.71823 12.9727
0.460292 4.10305 24.3454
1.85079 2.48589 15.3052
1.98081 4.82715 7.5692
0.741425 1.61504 14.9908
1.36001 3.28867 2.77947
0.630524 4.32448 15.0617
1.47177 7.21319 41.3032
2.52311 3.81567 14.3411
1.04155 5.59003 16.511
2.2237 3.407 6.9897
0.499866 3.41199 17.824
1.11224 4.31836 11.9769
1.8841 0.963764 14.6018
1.40468 6.78384 15.508
2.11126 2.395 11.9095
1.60937 1.71428 5.6598
0.99268 2.34741 15.5164
1.67434 2.43587 5.15841
0.89076 2.82893 7.84013
0.324431 4.55257 42.141
1.92839 10.1091 13.6324
1.63586 3.62405 14.7146
1.89783 2.73244 11.5734
1.70558 3.50278 22.1076
1.71266 4.27677 19.1232
0.837555 5.4559 32.5505
1.35289 6.86578 14.5371
2.36589 5.12639 14.5536
0.556493 2.19481 9.46636
1.57951 2.11711 9.0077
0.67708 2.43618 8.40191
1.28026 3.52945 21.0041
0.900461 2.96085 19.7732
1.05845 4.32824 14.9791
1.38106 6.90101 15.8097
1.92923 2.34066 10.1602
1.49838 3.65194 24.6362
2.86697 3.14956 3.93032
1.02287 2.75159 12.1851
0.413071 2.56255 5.94274
0.699802 4.0543 18.8777
1.48427 2.93058 11.2618
1.80446 1.25524 14.3938
0.998867 2.8045 12.7298
0.479808 6.95101 27.554
2.16715 6.64884 43.0284
4.38468 8.92571 23.7429
1.88575 4.55836 8.77954
1.0602 1.41806 13.8318
1.58552 3.24773 11.1501
1.84221 4.28069 7.73024
1.16751 2.35185 17.7274
1.14461 3.51476 9.59186
0.829277 5.68035 15.2943
1.02301 3.49313 13.0058
2.18339 2.83089 22.201
2.2495 2.69544 12.2463
2.1438 4.13607 22.7954
1.86499 4.15935 11.9692
0.937732 6.24142 37.0246
3.29342 9.20373 28.5573
2.75855 0 0