# pn-170911/RbIIF-71-RbIIA-1280-1959.psd
# Power spectrum* (dif=0,1,2) (really just |FT|^2)
# NOTE: only the first half! (symmetric)
# weeks: 1280-1959
# 289 clock-days, 4 excluded
# PSD: 1441
3829.74 0.0909837 0.00749647
267131 2.27302 0.00438684
2.10099e+06 46.8475 0.00543208
125522 4.16577 0.00428625
173802 13.8775 0.00504389
48344.9 4.05215 0.00496221
34618.6 4.65539 0.00518611
25167.9 4.35145 0.00578936
18971.5 4.55027 0.00580812
14962.4 4.10042 0.00605677
12429.2 4.386 0.00664338
10295.8 4.14648 0.00628633
9408.39 4.66195 0.00709193
7120.33 4.34125 0.00753102
5580.66 3.78226 0.00718404
4867.33 3.82103 0.00845914
4606.35 4.0673 0.0101543
3947.12 3.94753 0.00950326
3962.62 4.32684 0.0111828
3240.59 3.88068 0.0116382
3027.69 4.15687 0.011285
2626.58 3.63001 0.0115652
2394.12 4.2634 0.0141446
2290.01 4.00388 0.0147562
2024.77 4.08663 0.0147928
1974.92 4.0874 0.0180949
1647.93 3.85779 0.0164716
1659.15 3.94267 0.018112
1513.78 3.94646 0.0199086
1498.93 3.98318 0.0189125
1241.25 3.55987 0.0192043
1155.22 4.03521 0.0226681
1295.54 4.48323 0.0253168
1181.11 4.64484 0.0274721
1089.44 4.25535 0.0281705
1031.94 3.92838 0.0272589
1004.79 4.38223 0.0321016
929.875 4.49412 0.0345681
865.345 3.9527 0.031491
879.526 4.24138 0.0357683
842.74 4.69823 0.0422596
701.429 4.0292 0.0362868
761.896 4.1993 0.0404813
673.634 3.94953 0.0399939
673.832 4.29696 0.0438019
679.882 4.5465 0.0470816
603.422 4.38874 0.0468758
545.259 3.7037 0.0432183
585.149 4.42446 0.0535421
540.585 4.58227 0.0582677
501.712 3.95204 0.0518546
452.859 3.74757 0.0499761
462.189 4.16822 0.0574964
419.275 3.89844 0.05564
532.407 4.54689 0.0681498
435.546 4.25856 0.0652401
367.207 3.53701 0.0574321
390.07 4.2882 0.0721127
402.712 4.28137 0.0763266
345.414 4.16009 0.0728336
417.922 4.78117 0.0853
324.207 4.16085 0.078679
328.762 4.03464 0.0775136
348.44 4.30016 0.0870363
325.675 4.29461 0.0908102
301.827 4.41591 0.0937831
289.534 3.99851 0.0836883
279.945 3.93995 0.0871877
274.58 4.47274 0.100663
273.791 5.07528 0.118693
263.545 4.26981 0.102402
262.681 4.03697 0.100692
217.036 3.6813 0.0951119
233.818 4.24976 0.113177
218.566 4.14565 0.111683
219.617 3.99664 0.113279
208.432 4.06431 0.113507
211.995 3.95357 0.113615
200.63 4.47049 0.133311
205.449 4.19987 0.131388
201.434 4.42007 0.142524
210.625 4.31165 0.14039
209.252 4.1443 0.134829
195.918 4.8465 0.16461
171.663 4.32923 0.146908
183.499 4.13884 0.144323
178.959 4.21962 0.151168
157.921 3.93056 0.143716
168.738 4.32181 0.162848
164.19 4.4085 0.169609
180.972 4.89892 0.194318
156.795 4.20386 0.171096
151.713 4.30157 0.176837
145.025 4.2346 0.174742
133.388 4.07377 0.177573
154.841 4.48265 0.196282
134.773 4.1993 0.190344
144.081 4.46937 0.203367
128.143 4.01863 0.187448
123.627 4.06753 0.193474
138.589 4.78575 0.230755
134.697 4.71189 0.229011
121.121 3.90283 0.197497
120.735 3.9072 0.20467
136.595 4.43578 0.237887
115.535 4.14649 0.225059
135.475 5.05472 0.276305
101.696 4.07798 0.223302
106.069 3.937 0.219266
117.516 4.83467 0.274705
102.931 4.04655 0.231817
104.485 4.40028 0.264679
103.318 4.31469 0.252379
91.0071 3.86843 0.231608
100.547 4.50109 0.288201
90.6811 4.28305 0.278807
86.5761 3.77855 0.242712
88.858 4.13496 0.271747
91.5375 4.06459 0.266869
89.539 4.19068 0.280512
75.985 3.7014 0.258305
88.4227 4.23027 0.301706
79.2049 4.10191 0.287838
83.7745 4.38943 0.321882
78.0715 3.83573 0.274572
82.2115 4.40021 0.328647
67.4667 3.66824 0.281485
80.5923 4.31021 0.338795
69.7759 3.82322 0.301675
72.4017 4.22769 0.336688
71.6479 4.11642 0.335812
74.0909 4.2356 0.343887
67.3042 3.94197 0.326089
76.1399 4.77692 0.41121
70.1055 3.97659 0.340922
62.3395 3.75436 0.326626
66.3136 4.25799 0.379508
66.1274 4.25133 0.385867
61.3186 3.97307 0.362847
61.5538 3.83186 0.35819
66.3606 4.20866 0.392971
57.2872 3.87369 0.373685
66.0668 4.47458 0.438165
57.9814 4.01327 0.390127
55.5803 4.06965 0.403333
66.2531 4.83185 0.480344
59.2765 4.20973 0.431651
55.8202 3.97758 0.403761
56.989 4.26976 0.441053
56.48 4.07669 0.438489
59.4768 4.76414 0.507655
49.5723 3.84518 0.414878
47.5058 4.10178 0.448587
56.0842 4.43947 0.499862
55.2127 4.0888 0.458471
45.2072 3.86744 0.447655
45.9141 3.9116 0.457126
49.5379 3.9536 0.454307
47.016 3.9438 0.468895
46.7583 4.02137 0.482969
53.3432 4.66058 0.565038
49.6933 4.52571 0.553483
48.2421 4.27728 0.526428
49.2474 4.39443 0.558617
46.1501 4.55053 0.589686
46.411 4.22246 0.541449
42.3953 4.3612 0.567943
42.1808 4.09504 0.54017
49.5298 4.73445 0.627211
42.9691 4.16132 0.577428
41.142 3.97772 0.530955
42.2466 4.54668 0.62852
40.6776 4.08931 0.564906
39.7179 3.95847 0.571153
43.3457 4.5997 0.663981
39.9341 4.07169 0.589999
39.6644 4.25779 0.62412
42.1457 4.46961 0.654465
39.2683 4.23802 0.621809
38.7273 4.29267 0.649185
40.794 4.6224 0.704207
40.6712 4.24856 0.649958
37.8727 4.1987 0.677297
37.4446 4.12961 0.655373
43.1548 4.83144 0.766024
37.6009 4.32818 0.702741
38.4663 4.20601 0.697053
38.0012 4.39486 0.714076
37.8114 4.09123 0.68323
39.5718 4.47031 0.739265
37.8422 4.489 0.787007
34.9034 4.15487 0.705216
35.7782 4.63405 0.817428
37.4813 4.41215 0.781045
32.3788 3.70963 0.655418
36.6409 4.81004 0.867569
32.7976 4.18582 0.748461
34.5877 4.43542 0.804996
37.6361 4.24486 0.798113
33.0936 3.97262 0.741648
31.1455 4.01089 0.756005
31.5801 4.17085 0.792828
28.5433 3.28519 0.624482
29.8211 3.8204 0.759564
32.7481 3.98332 0.768125
31.4049 4.32143 0.849294
30.5323 4.21346 0.840907
28.6226 4.271 0.861586
31.7167 4.41419 0.891751
33.7558 4.81211 0.983849
25.5685 3.92254 0.826966
28.4296 4.31316 0.891699
27.3131 4.32082 0.927995
29.8084 3.98646 0.859732
31.2123 4.59979 0.986777
26.9231 4.19207 0.918043
29.7236 4.24491 0.901152
27.4337 3.83796 0.850415
28.906 4.61619 1.02672
31.5944 4.94227 1.10883
28.2109 4.52302 1.02479
25.7805 3.91854 0.921254
25.5394 3.84531 0.886169
25.1717 4.05462 0.966973
27.1175 4.27546 0.995477
28.4761 4.55001 1.05316
26.0189 4.28619 1.03689
26.8984 4.80302 1.17312
25.4754 3.95151 0.951426
23.3601 4.2558 1.05279
27.7391 4.93869 1.24331
27.3117 4.74885 1.20938
25.2584 4.55206 1.14286
26.126 4.50314 1.13994
24.3379 3.96133 1.01764
25.6842 4.14656 1.05537
22.0126 4.2465 1.12677
22.2925 3.82906 1.00453
23.8339 4.33308 1.1438
21.6911 4.11025 1.09636
22.3837 3.94288 1.08257
21.7938 3.89544 1.05279
21.5607 3.97199 1.11215
22.4179 3.94363 1.04502
20.7474 4.17663 1.15542
22.7702 4.30295 1.177
22.7187 4.67083 1.30986
21.7417 4.27064 1.21201
20.846 4.23927 1.21869
23.2501 4.34529 1.28359
20.1612 4.08663 1.18435
20.7754 4.03321 1.17984
21.4271 4.39068 1.29882
21.603 4.29512 1.30612
21.2728 4.67455 1.40038
20.9015 4.5725 1.40137
20.3154 4.23471 1.27201
17.8007 3.99151 1.21776
20.2639 4.61037 1.39635
19.2207 3.99548 1.2598
19.9697 4.3366 1.39469
19.1092 4.57788 1.44191
21.0385 4.91323 1.53179
19.5951 4.46136 1.40021
19.3743 4.43922 1.44532
20.4483 4.82667 1.57186
18.098 4.09066 1.36683
18.3849 4.40564 1.46447
19.5377 4.73012 1.5505
18.7114 4.40926 1.52309
19.5825 4.76329 1.5654
15.3568 3.78047 1.31356
15.7533 4.12354 1.40328
17.1324 4.2583 1.49811
18.309 4.27074 1.46087
18.0215 4.75949 1.63965
16.7256 4.26054 1.52438
15.9112 4.15073 1.50738
15.4236 4.22242 1.51924
19.1161 4.70317 1.69095
16.0368 4.04186 1.45208
15.6515 4.41332 1.60701
14.7584 3.75782 1.39343
16.5212 4.71131 1.77728
16.6043 4.1952 1.5566
15.7109 4.43767 1.66393
15.6037 4.75285 1.81976
15.5179 3.88567 1.44518
15.0239 4.24321 1.61324
14.5787 4.28565 1.60586
13.8582 3.93216 1.5691
16.4425 4.52309 1.7479
15.9233 4.38393 1.70497
14.1348 4.13749 1.64505
14.4901 4.66797 1.86838
13.3871 4.24252 1.75411
14.0132 4.12726 1.66947
13.1743 4.10468 1.68055
13.6376 4.26075 1.72508
15.118 4.63032 1.9145
13.9119 4.26704 1.72581
12.7966 3.99017 1.70288
13.8538 4.53123 1.90743
15.2822 4.54902 1.929
13.0879 4.11054 1.75998
13.7547 4.39805 1.82834
13.6109 4.36196 1.89015
14.7767 4.732 2.07062
12.0044 4.08165 1.7609
13.3129 4.31807 1.88584
12.7049 4.19886 1.83019
13.0182 4.43673 1.9982
12.3978 3.93501 1.7654
12.3824 4.0517 1.87208
13.424 4.08574 1.80714
12.5697 4.2237 1.93846
12.5106 4.54091 2.07803
11.848 4.07117 1.85386
13.0724 4.22698 1.99411
12.3322 4.17337 1.97722
11.8685 4.18532 1.93589
14.5319 4.93027 2.2551
12.5981 4.54115 2.18178
12.2144 4.49187 2.173
12.5235 4.09089 1.90714
11.3841 3.95554 1.9876
13.7138 4.6704 2.17951
11.9038 4.20896 2.14248
12.5979 4.44534 2.10191
12.7587 4.68051 2.40177
13.0372 4.12959 2.00861
12.6263 4.67028 2.32036
11.6187 4.22731 2.12789
12.8991 4.09702 2.05958
12.3195 4.20661 2.13373
12.4185 4.31723 2.12902
10.4388 4.04181 2.12606
11.3653 4.45305 2.32369
11.7116 4.23185 2.25838
12.1686 4.64852 2.43808
12.7205 4.89034 2.55665
11.5686 4.34535 2.26392
13.088 4.49846 2.37944
11.1339 4.48358 2.422
12.0207 4.56724 2.43036
13.2298 4.56164 2.45027
11.244 4.1785 2.27363
11.6762 4.351 2.40513
9.86067 4.07263 2.22565
11.0066 4.53627 2.49203
12.4426 4.88552 2.76387
11.1451 4.61388 2.53514
11.4965 4.6409 2.54415
10.842 4.52339 2.61158
11.7855 4.61687 2.53812
10.6494 4.1386 2.34181
10.7278 4.59386 2.71521
11.5212 4.62592 2.65831
10.8756 4.26192 2.42743
10.5624 4.24246 2.58501
10.6183 4.4598 2.56907
11.2763 4.72731 2.89013
11.3233 4.64269 2.65489
10.1365 4.08055 2.44066
11.4397 4.83036 2.91739
10.9868 4.66522 2.75189
9.45564 4.46461 2.71449
9.53966 3.79243 2.35601
8.42116 3.84736 2.44095
10.7702 4.20993 2.55722
9.79225 3.98036 2.46821
10.465 4.30547 2.73889
11.534 4.52701 2.58486
9.62956 4.13279 2.66062
9.6835 4.09312 2.57771
9.26755 4.42981 2.94199
10.782 4.79589 2.99688
10.7122 4.44826 2.79194
11.1676 4.90471 3.13654
9.35353 4.55385 2.87524
9.91655 4.47304 2.87282
9.39763 3.82367 2.5329
9.42397 4.42392 2.89606
9.73906 4.73814 3.2041
9.42002 4.6523 2.98575
9.31913 4.48423 3.04779
9.79872 4.72865 3.16818
9.97325 4.77105 3.29737
10.2147 4.4639 2.83491
10.6729 4.53269 3.09263
9.54261 4.39334 3.12979
10.0964 4.21117 2.81331
9.35709 4.57467 3.11259
8.19153 3.99674 2.78492
8.67214 3.96069 2.85433
8.82276 4.21775 2.909
8.35233 4.02313 2.80821
8.12651 4.62262 3.3182
9.14811 4.5987 3.16372
9.35183 4.68389 3.33442
8.36529 4.392 3.27785
8.64209 4.40802 3.03615
8.65868 4.48842 3.32542
8.57957 4.33654 3.02074
8.81798 4.52718 3.2972
9.31967 4.88182 3.55697
8.36696 4.51798 3.32106
8.67862 4.5845 3.50016
7.74317 3.98889 3.10618
7.60121 4.08367 3.036
8.57781 4.85691 3.4926
7.6463 3.88542 2.95103
7.72341 4.25377 3.29879
9.00334 4.9633 3.78161
7.7979 4.27255 3.31561
8.07521 4.16497 3.09157
8.0536 4.51183 3.51031
8.5008 5.04429 3.85485
7.05115 4.33197 3.32016
7.07506 3.9724 3.14668
7.39317 4.18205 3.32714
7.79646 5.16824 3.92741
7.88457 4.25015 3.47431
8.12208 4.70505 3.74031
7.41622 4.79611 3.81583
7.59657 4.58592 3.76605
8.37356 4.72731 3.62127
7.48195 4.57725 3.75372
7.38037 3.79234 3.05674
7.83996 4.79132 3.94881
8.08178 4.44614 3.5757
8.59334 5.15048 4.04538
7.67722 4.5352 3.81202
7.29715 4.47312 3.60086
7.94854 4.67633 4.0236
7.45453 4.72099 3.82028
7.32075 4.23404 3.72886
7.34815 4.18985 3.4285
7.29948 4.44155 3.60937
7.52895 4.71118 4.07536
6.77919 4.23511 3.74569
6.73461 4.53641 3.91266
7.8562 4.83292 4.03153
7.11126 4.87255 4.28794
7.26006 4.43341 3.91951
7.00435 4.33325 3.70797
7.51007 5.12261 4.47541
7.00392 4.47469 4.03175
7.83576 5.08402 4.30156
7.05727 4.28656 3.84072
7.0354 4.71458 4.14476
6.52585 4.34073 3.94286
6.75423 4.46314 4.02078
7.25673 4.62638 4.13302
6.852 4.29065 3.87376
7.83417 5.16387 4.68086
6.84544 4.64029 4.33752
6.54435 4.85555 4.4187
6.65718 4.54117 4.21321
6.11674 3.95642 3.64413
6.42491 4.52136 4.25525
6.30883 4.25377 4.09424
6.69513 4.55585 4.0903
5.96535 4.27516 3.89736
6.03536 4.5309 4.41175
6.27313 4.097 4.03243
7.14174 5.10615 4.75039
6.50708 4.34329 4.04812
5.6971 4.3249 4.1494
6.71986 4.78424 4.42851
6.8119 4.75228 4.64869
6.46291 4.07953 4.12873
6.55973 4.40349 4.25881
6.81692 4.54469 4.47567
6.53001 4.76871 4.61293
7.49963 5.32625 5.18695
6.90997 4.4148 4.24402
6.08145 4.34623 4.36503
5.68308 4.15224 4.2707
6.72499 5.06807 4.83259
5.65567 4.24166 4.11288
6.07736 4.62345 4.62669
5.58818 4.65056 4.85337
6.44863 4.96033 4.78445
5.86399 4.06878 4.37912
6.52643 4.42222 4.47826
6.77007 4.64826 4.74645
5.93183 4.26116 4.40245
7.05035 4.65842 4.6682
6.17691 4.24663 4.36312
6.22274 4.50287 4.60843
5.86878 4.37889 4.77905
6.0054 4.05439 4.39067
5.67624 4.26391 4.48365
5.88364 4.53859 4.64198
5.67145 4.40302 4.56781
5.8335 4.45507 4.84742
5.38034 4.22385 4.43356
5.39458 4.55896 5.07234
6.06419 4.4809 4.8151
5.12979 3.93454 4.46669
6.24092 4.65516 4.83023
5.58077 4.33794 4.6053
5.3362 4.54835 5.13841
5.70715 4.15557 4.56299
5.77264 4.45595 5.07362
5.50491 4.20045 4.66014
5.68135 4.21822 4.79543
5.77464 4.45916 4.6963
5.74266 4.35635 4.65269
5.14621 4.04075 4.5291
5.26087 4.25914 4.95295
5.82365 4.55022 5.01672
5.48199 4.53846 5.15745
5.58231 4.15854 4.56175
5.40232 4.57565 5.22242
5.28526 4.13125 4.7577
6.05958 5.04979 5.70554
5.7737 4.67061 5.50129
5.93377 5.204 5.78573
5.76355 4.81995 5.55705
5.65809 4.10317 4.46276
5.70419 4.85423 5.67957
5.05858 4.43788 5.49814
5.41618 4.20192 4.849
5.17992 4.52896 5.4812
5.66945 4.34135 5.10277
5.66361 4.71402 5.59197
5.1658 4.38223 5.25354
5.64039 4.34364 4.94135
5.92041 4.84458 5.73425
5.95405 4.698 5.98395
5.62887 4.32551 4.99005
4.9199 4.48384 5.58033
5.31019 4.83323 6.04243
6.15149 5.21009 5.86699
4.53369 4.23901 5.44188
5.20595 4.29854 5.17071
5.18368 4.4635 5.41665
5.07113 4.30901 5.34059
4.98901 4.31459 5.51205
5.1103 4.49972 5.80081
5.47319 4.04883 5.01832
5.43526 4.59109 5.66281
5.20427 4.94793 6.08081
5.03599 4.68586 5.58803
4.66039 4.30959 5.54041
5.31935 4.76143 6.3698
5.76248 4.81929 5.36919
4.90437 4.97775 6.44808
4.56121 3.93601 5.26328
5.49791 4.90271 6.02395
5.47682 5.05366 6.28397
4.66678 4.57821 6.10218
4.77738 4.18044 5.68695
4.48653 4.23017 5.84458
5.35851 4.61783 6.1814
5.44541 5.02919 6.27501
5.02106 4.82652 6.25757
4.57019 4.35566 5.6922
5.28886 4.96685 6.3958
4.97675 4.58774 6.15408
4.96881 4.4066 5.97002
4.64094 4.18896 5.5168
4.818 4.82653 6.38569
4.91653 4.86415 6.772
5.35115 4.89821 6.34906
5.13774 5.37595 6.64635
4.62282 4.60304 6.28861
4.4963 4.64744 6.61112
5.21985 4.97571 6.85642
5.04306 5.20067 6.76464
4.55703 4.80867 6.57052
4.84597 4.90892 6.72734
4.63124 4.59325 6.62985
4.92793 4.687 6.23952
4.967 4.81832 6.69828
5.20698 5.86664 7.99722
4.90127 5.05535 7.23895
4.85181 4.74962 6.45895
4.75396 4.52965 6.46084
4.57847 5.11626 7.07719
4.41838 4.56317 6.25951
4.52257 4.63419 6.61168
4.02512 4.52624 7.01689
5.2852 5.87317 8.03135
5.12473 5.35091 6.89965
3.78091 4.23977 6.54525
4.2443 4.58321 7.16581
4.95411 4.90239 6.28942
4.39237 4.77407 6.82942
3.70264 4.02226 6.04903
4.1314 4.55126 6.83111
4.0946 4.93791 7.17843
4.10068 4.5171 6.67428
3.75731 4.1579 6.09788
3.95829 4.26518 6.28409
4.18503 4.58415 6.61866
3.98711 4.4031 6.26968
4.00374 4.87022 7.04742
3.67949 4.1303 6.3641
4.20865 4.38451 6.77526
4.07493 4.51717 6.65051
3.96302 4.35028 6.18172
3.87198 4.40107 6.55879
4.09467 4.36083 6.41124
3.8767 4.59386 7.15219
3.91183 4.1519 6.25746
4.03685 4.30666 6.57301
4.17936 5.00407 7.47241
3.6447 4.47091 7.05289
4.3563 4.52227 6.90461
4.08517 4.38486 6.80129
3.781 4.29198 6.57526
4.04769 4.37721 6.80957
4.24556 4.71127 7.05764
3.96645 4.69788 7.65121
4.11226 4.31119 6.67219
4.05699 4.34599 7.18107
4.3628 4.90645 7.04027
3.85101 4.71132 7.61152
4.00213 4.3922 7.00026
3.96407 4.49149 6.69948
4.12411 4.23121 6.70825
3.82507 4.66238 7.46596
3.71785 4.06984 6.52028
3.73276 4.57418 6.87136
4.33338 4.77126 7.85319
3.59691 4.64464 7.61491
3.82117 4.58456 7.75601
4.34497 4.38858 6.77553
3.71152 4.58581 7.41447
4.03344 4.84457 7.92396
4.29574 5.07265 8.19764
4.02502 4.84544 7.94986
3.69945 4.63744 7.45423
3.67298 4.11387 6.89674
3.7569 4.83672 7.80001
3.59683 4.27993 7.24775
3.95932 4.63914 7.50564
4.06781 5.3897 9.08185
3.97254 4.76397 7.61684
3.78371 4.34207 6.77062
3.43711 4.00058 6.84554
4.20804 4.83751 8.01939
3.46578 4.61765 7.79741
3.52522 4.78412 8.38619
4.06047 4.17833 6.60165
3.81677 5.278 9.18435
4.05555 4.7106 8.13359
3.47856 4.47849 7.51728
3.76303 4.28649 7.74019
3.93197 4.78087 8.08586
4.0047 5.38355 8.98983
3.91336 4.91995 8.13144
3.91366 4.70914 7.94683
3.55179 4.40951 7.6042
3.86017 4.71587 7.90744
3.62317 4.6398 8.17033
3.67492 4.61077 8.1875
3.79672 4.99293 8.76763
3.92102 4.46212 7.57979
3.62877 4.85496 8.39801
3.52718 4.60904 7.79472
3.35657 4.18088 7.48329
4.00506 5.24728 9.33952
3.96911 5.05065 8.39028
3.58403 4.30565 7.56766
3.3373 4.70766 8.86869
4.14752 5.40884 9.0794
3.43551 4.12642 7.63596
3.53743 4.39551 7.74316
3.12414 4.2495 7.90703
3.88726 4.83051 8.40246
3.45506 4.34608 8.17864
3.53377 4.40215 8.55326
4.06944 5.07634 8.8663
3.91176 4.41978 7.86549
3.47112 4.60199 8.88283
3.58469 4.33105 8.01435
3.67655 4.41381 7.48753
3.2919 4.18938 7.90535
3.43653 4.43451 8.03268
3.53277 4.81673 9.46965
3.45549 4.75756 8.95591
3.61961 4.38525 7.20311
3.20488 4.5383 8.78592
3.98093 5.03567 9.19578
3.44007 4.80121 8.75607
3.41309 4.26056 7.85163
3.38507 4.79887 9.35757
3.53154 4.45477 8.06644
3.39134 4.3159 7.87696
3.25128 4.11087 7.94229
3.51236 5.21348 9.66403
3.39191 4.31736 7.50055
2.94912 4.11862 8.16475
3.23218 4.43644 8.71811
3.14966 4.2916 8.35894
3.50065 4.80908 9.36653
3.34337 4.49906 8.24256
3.40505 4.34076 8.45871
3.25652 4.27729 8.31049
3.1419 4.59031 8.81802
3.35883 4.69189 8.78704
3.30037 4.82311 9.60269
3.32741 4.67817 9.43951
3.46606 4.66112 8.55311
3.41449 4.74064 9.38448
3.14238 4.51512 8.61445
2.91486 4.26863 8.78511
3.38499 4.86534 9.22263
3.01075 4.10516 8.18459
3.18591 4.27944 8.74636
3.32733 4.8359 10.0908
3.63184 4.61922 8.58453
3.16044 4.29158 8.83223
3.45779 4.94572 9.43155
3.36527 4.59256 8.9737
2.99762 3.97817 8.04612
3.35458 4.68009 9.02031
3.07033 4.2372 8.83197
3.5796 5.09329 10.0311
3.30158 4.99029 10.1713
3.33953 4.38181 8.69604
2.96632 4.28239 8.55211
3.24359 4.72823 9.75366
3.0883 4.6997 9.89984
3.24559 4.66297 9.05834
2.91054 3.94761 8.28305
2.71926 4.0285 8.49065
3.16144 4.85262 9.63401
2.81497 4.33534 9.19105
3.3462 4.93157 9.45506
2.97781 4.57856 9.45265
3.01698 4.44798 9.4627
3.33067 4.95233 9.98757
3.14835 4.88102 10.6388
3.27757 4.85988 9.74812
2.94934 4.52435 9.60493
3.06402 4.73963 10.2673
2.82998 4.37337 8.69408
3.01594 4.63399 10.7077
3.21378 4.84684 9.83757
3.09685 4.90795 10.2076
3.13781 4.43214 8.84583
2.96045 4.76103 9.3324
2.86918 4.92633 10.6664
3.1287 4.54194 9.71116
3.14771 5.33362 11.7855
3.39979 4.90839 9.39363
2.79704 4.71811 10.6929
3.02437 5.28968 11.9116
3.20264 4.57638 9.47181
2.84959 4.32022 10.0008
3.20147 5.1404 10.9618
2.95789 5.00488 10.215
2.86104 4.66081 9.85726
2.95218 5.00297 11.0957
3.23104 4.72981 10.4183
2.93601 5.16972 11.4282
3.09121 4.63566 9.88063
2.77283 4.45135 9.74757
3.04993 4.83051 10.7888
3.10121 5.00664 10.2531
2.99336 4.84686 10.7825
2.80869 4.78252 10.2654
2.74049 4.37656 9.86994
2.73845 4.66425 11.0367
2.96953 4.74299 11.4811
3.11144 4.88518 10.6055
2.99527 4.55953 9.63349
2.87851 4.82034 10.8896
2.9181 4.41738 9.31779
2.84862 4.81369 10.4921
2.7455 4.63068 10.5805
3.01686 4.47463 10.5038
2.92056 5.09648 11.0396
2.8466 4.46651 10.12
2.72025 4.48296 9.97702
2.60206 4.58991 10.7465
2.70041 4.16614 9.38582
2.97445 5.46911 12.1225
2.56093 4.38455 9.76099
2.63361 4.70679 10.2403
2.59576 4.47027 11.0435
3.00491 4.88481 11.266
3.05074 4.96081 10.8917
2.79425 4.87925 11.938
2.99513 5.33653 11.6924
2.81175 4.84475 10.8799
2.75469 4.60272 10.5306
2.96493 4.46782 9.93069
2.5306 4.616 10.5545
2.49482 4.76408 12.1834
3.07657 4.98388 11.2016
2.82156 4.77936 11.1805
2.99559 5.36033 11.9779
2.63855 4.63602 11.5542
3.03913 5.37136 12.1267
2.77519 5.05359 12.2949
2.89108 5.00541 11.993
2.78846 5.12984 12.2843
2.85592 4.44336 10.4797
2.83525 4.81037 11.4595
3.00514 4.28673 10.0454
3.04156 5.02686 11.6942
2.80193 4.81072 11.4073
2.82604 4.87799 11.7609
2.74534 4.67533 11.2219
2.81757 4.61498 11.2743
2.57092 4.38299 10.2276
2.66506 5.1058 12.1535
2.72072 4.57896 11.1585
2.70928 4.74704 11.1367
2.57613 4.71902 11.9775
2.65405 4.97813 11.5351
2.72851 4.90686 12.1269
2.84414 4.71038 12.6538
3.12796 4.74647 10.8884
2.633 4.22052 10.8899
2.95263 5.0191 11.5844
2.7433 4.48825 10.8523
2.84712 4.92995 12.4007
2.80952 5.43303 13.3883
2.75753 4.65172 10.693
2.67048 4.96221 12.5558
3.03827 5.34289 11.9407
2.87863 5.10733 12.7688
2.71784 5.16535 13.1611
2.77886 4.54732 11.3985
2.66458 4.53116 11.6866
2.58607 4.77391 11.8559
2.62845 4.88163 12.2808
2.82108 5.32784 12.7439
2.51321 4.56672 11.5653
2.81708 4.97547 12.1566
2.25378 4.57974 12.6505
2.61304 4.60044 11.7892
2.75319 5.1025 12.0383
2.36831 4.49517 11.3678
2.91263 4.81042 11.9489
2.46002 4.71377 12.5342
2.90181 5.13418 13.1507
2.83681 5.13522 12.1498
2.89324 5.03582 12.4457
2.79522 5.00573 14.1944
2.87103 5.15545 12.539
2.61515 4.77099 11.6195
2.61676 4.38287 12.3448
2.90539 4.87079 13.1539
3.18133 5.63395 13.2989
2.5966 5.04519 13.0694
2.63399 5.16658 13.1374
2.73844 5.02853 12.5282
2.84227 5.34261 13.4779
2.53747 4.91151 13.2302
2.68078 5.36477 14.2176
2.71044 5.26987 13.7642
2.885 5.29041 13.2609
2.67556 5.14775 13.5093
2.71597 5.52682 13.62
3.11405 5.72851 15.2609
3.20894 6.54175 14.8516
2.85843 8.0011 29.9035
4.751 7.36909 14.9492
2.99152 5.8243 15.0455
3.05341 6.12678 15.7387
2.97075 5.65176 13.1508
2.51099 5.37402 13.9134
2.58757 5.09222 13.3624
2.33386 4.64528 12.5713
2.65334 5.64077 15.0803
2.76243 4.95984 13.8576
2.84277 5.25908 13.6794
2.61251 5.06446 13.1458
2.46245 4.61508 12.5087
2.39362 4.83765 13.9541
2.58052 5.05214 12.793
2.62092 5.09845 13.0869
2.3405 4.75488 12.9107
2.36061 4.96267 12.3959
2.23047 4.6428 13.2379
2.39077 4.44322 12.6087
2.3754 4.99438 13.6713
2.40486 5.0292 13.8573
2.496 4.93936 13.9182
2.4965 4.87584 12.5992
2.38362 5.13568 12.6314
2.16781 4.40608 13.456
2.42433 4.88123 12.8376
2.38337 4.78446 13.2259
2.67944 5.69899 14.7992
2.36415 5.12674 14.9368
2.18236 4.64575 12.5905
2.36026 4.74798 12.2989
2.3337 4.8784 13.8151
2.44672 4.71743 12.063
2.13443 4.75919 13.2443
2.31083 5.05609 14.475
2.37304 4.41981 12.3286
2.54397 5.24891 14.1521
2.28662 4.3407 13.1235
2.40724 4.75265 12.4275
2.23667 5.09505 13.6886
2.37652 5.26793 14.6605
2.22572 4.74887 13.7925
2.34653 4.78461 12.9637
2.19979 4.62028 12.2012
2.0543 5.06935 14.7625
2.34568 4.91403 14.6125
2.34445 4.89878 13.6536
2.3835 5.16032 13.9302
2.37058 4.96108 15.1355
2.62441 4.76045 12.7206
2.30458 4.92498 14.143
2.46699 5.05091 15.1307
2.75091 5.23343 12.905
2.29805 4.60889 12.8546
2.21124 4.88703 13.2676
2.1066 4.00056 11.9918
2.20904 4.77096 14.2443
2.26684 4.92696 14.6499
2.53726 4.79298 14.0635
2.54307 5.04278 13.4233
2.23664 4.51271 13.5237
2.33521 4.83122 13.0753
2.19805 5.41716 15.4931
2.33404 4.76135 13.6762
2.27705 5.1172 13.9435
2.1042 5.07428 14.4042
2.06916 5.18816 16.0158
2.36405 4.97397 14.7908
2.34628 4.416 11.9703
2.01534 4.47129 14.0561
2.29639 4.89223 14.9845
2.4163 5.30222 15.1114
2.27323 4.83726 14.2723
2.27165 5.41932 15.5862
2.37375 4.96585 13.6658
2.20558 4.77679 13.9496
2.13863 4.53978 13.5038
2.11273 4.69653 14.0237
2.49513 5.04851 12.7532
1.98915 4.72839 14.6326
2.16957 4.65471 13.0583
2.16868 4.7938 14.1026
2.05131 4.18702 12.3156
2.08246 4.78424 14.0132
2.0085 4.61365 14.8319
2.28594 4.96458 13.9468
2.22168 5.26432 15.1319
2.02512 4.76108 13.7332
2.15533 4.3926 15.6649
2.52659 5.06024 15.5624
2.34178 5.32232 14.1704
2.0326 4.88955 15.6511
2.35666 4.59699 12.2865
2.0437 4.75114 14.24
2.27702 5.08892 14.6972
2.20184 5.10507 15.7832
2.40414 4.56107 13.3937
2.05672 4.59274 16.1088
2.56838 5.17402 14.4792
2.39608 5.03854 15.2334
2.34753 4.71157 13.7502
2.13934 5.08153 16.0215
2.23733 4.76113 15.5444
2.34317 5.19439 14.8293
2.16619 5.38736 16.3494
2.45794 5.23401 16.1762
2.41596 5.57524 16.7449
2.38907 5.78976 19.6414
2.80206 5.79228 15.5357
2.29304 5.11348 15.2642
2.22458 5.09816 15.7533
2.10113 4.43151 14.215
2.07048 4.81555 15.8
2.45032 5.4614 15.9414
2.33689 5.8929 18.0401
2.60308 4.88247 14.1718
2.08983 4.79811 14.3309
2.14961 4.94331 15.6961
2.15306 4.88604 14.4838
2.08799 4.80553 15.2881
2.26884 5.22035 16.5256
2.38214 5.32137 16.3831
2.52013 5.39072 16.4173
2.41461 4.93736 14.6378
2.15591 4.972 15.7929
2.08667 4.54183 14.6535
2.3486 4.81626 14.7754
2.18336 5.28037 16.5337
2.41053 4.79388 15.473
2.2301 4.78178 15.0869
2.33049 5.21339 14.692
2.01186 4.87546 16.6103
2.31579 5.54077 16.107
2.02141 5.06732 15.5112
1.94908 4.32469 14.5559
2.1026 4.67109 14.4388
2.15417 5.03866 15.7193
2.29791 4.71801 15.5401
2.01239 4.98469 15.1687
2.11963 4.38236 13.8225
2.04606 4.9728 16.1777
2.48573 5.40909 15.7303
2.18263 4.6303 15.9783
2.26087 5.25742 15.8493
2.11458 4.73782 14.4365
2.07943 5.04706 16.7042
2.21172 5.15143 18.345
2.5102 5.1425 14.8471
1.96222 4.61337 15.6713
2.30268 5.00323 14.4105
1.99986 5.05149 17.2514
2.28539 4.51591 14.6635
2.03735 5.31371 16.8687
2.1471 5.06456 17.2125
2.26944 5.54557 16.5539
2.12329 5.14039 14.8626
1.64319 4.36528 15.9149
2.00223 4.96642 15.7435
2.22749 4.89194 15.9341
2.04214 4.78531 14.9868
2.03046 4.4059 13.929
2.08009 5.12002 15.8758
1.93295 5.16934 16.9481
1.94694 4.30701 15.5952
2.13626 4.87954 15.8426
2.16096 5.38328 17.1187
2.13932 4.87269 16.3722
2.08129 5.13476 16.2345
1.95144 4.88296 16.5035
2.15031 5.41105 17.0904
1.93987 4.26987 14.0036
1.82337 4.83682 15.8499
1.86785 4.60718 17.117
2.12425 5.30427 16.7361
2.2241 4.95836 14.2771
1.92026 4.65405 16.6747
2.05081 4.66917 14.9389
1.8794 4.80791 17.1421
2.1668 5.50863 16.507
2.06072 4.58516 15.1763
1.91826 5.42198 17.53
2.03918 4.98973 17.1649
1.97293 4.71377 14.9049
1.93359 4.60222 15.5891
1.92377 4.57613 15.4334
1.9827 5.06067 16.7753
1.95625 4.97346 16.9078
2.17159 5.77814 19.4384
2.1509 5.5046 16.4094
1.94015 4.61772 16.0061
1.98672 4.84101 15.2098
1.78249 4.83801 16.7511
1.92507 4.84946 16.167
1.97292 4.9239 16.3214
1.85217 4.82682 16.511
2.02521 5.46505 18.6852
2.12339 5.20668 16.6805
2.12029 4.97905 16.9427
1.82933 4.57097 16.3066
1.94904 4.33092 14.2934
1.78216 5.14285 17.0254
1.9173 4.71268 16.2611
2.10679 5.21421 16.5306
2.0267 5.68913 20.2458
2.08869 5.12255 17.1257
1.98859 4.5607 14.5415
1.77817 4.76512 16.2885
1.88716 4.87383 18.5746
2.12508 5.53404 18.6314
2.14716 5.699 18.033
1.96089 5.52088 19.3318
2.02216 4.83362 17.5497
1.88286 4.36466 14.3082
1.90814 5.60359 18.5033
1.88982 4.89229 15.6041
1.95698 6.86441 28.8004
2.85011 6.19979 18.0161
1.82097 4.81077 16.6613
2.10978 4.93437 17.3435
2.06519 4.87008 15.5414
1.88382 5.52267 17.7287
1.84686 4.63604 15.8481
1.91141 4.87921 15.9034
1.86035 5.00412 17.1056
1.74518 4.4433 16.6914
2.04962 5.77931 18.4031
1.93682 4.55495 16.9031
1.78237 4.81392 16.7192
2.03354 5.21471 18.0369
2.02033 4.84189 17.4569
1.7884 5.5429 18.98
1.90333 4.81275 15.3971
1.72193 4.35011 16.6276
1.96921 4.92678 16.8002
1.80173 4.78066 16.2632
1.75773 4.66595 17.1726
1.92027 5.07858 16.8678
1.88462 4.85777 16.8177
1.80731 4.54728 16.272
1.87589 4.89205 16.7801
2.04571 4.78744 15.4227
1.70221 4.63383 18.7502
2.23601 5.04411 17.6156
2.06959 5.09843 16.8114
1.89462 4.78451 16.9773
1.99703 4.68001 17.1295
1.95944 5.08613 17.6369
2.04524 5.68851 18.8299
1.99969 4.70895 16.9325
1.8993 5.62559 17.5324
1.88702 4.76524 17.3168
1.95452 5.28664 18.3268
2.00315 5.34514 17.7816
2.03479 4.7202 17.6102
1.8866 4.5732 17.6431
2.02883 5.43137 17.9216
2.00368 4.92543 17.9194
2.01461 5.41449 19.8708
2.10609 4.70382 17.2718
2.10424 4.89317 17.5455
1.87015 5.15378 17.9573
1.99174 4.83287 17.9692
2.0273 5.20234 17.7744
2.10366 4.91978 16.7983
1.98293 5.8986 24.2032
2.53035 6.18085 18.3163
1.81738 4.66339 18.7471
2.02666 5.08624 18.3526
2.04015 4.85679 18.3723
2.23963 5.19648 18.3592
2.19384 5.59912 18.7385
1.99637 5.51264 17.6127
1.9149 5.23113 20.0643
2.22351 5.57353 17.9796
1.89036 5.01105 20.3086
2.08266 4.9574 16.4283
1.89194 4.99316 19.6077
2.18011 5.03624 17.2242
1.85283 6.01527 19.9436
1.84738 5.09326 20.5253
2.17751 4.8669 18.799
2.0911 5.20319 18.544
2.09965 6.04974 21.2447
2.08342 5.75491 20.5315
2.12209 6.42577 23.8609
2.55938 5.65193 19.5029
2.0281 5.55661 18.3721
1.97234 6.25555 23.1654
2.25855 5.61677 23.2867
2.74588 6.36595 21.0511
2.06167 5.09096 21.1508
2.17881 5.25534 18.4436
2.01582 5.52821 20.8213
2.35008 6.55824 20.6376
2.1151 6.20035 22.695
2.1314 5.45814 19.3519
1.99677 5.20598 18.8654
1.85233 5.18761 19.0785
1.96459 5.13461 19.1973
2.03531 5.62729 19.2885
2.04996 5.14502 19.1797
1.92443 4.8579 18.3321
1.99786 5.22398 17.8697
1.86003 4.67319 18.4283
1.81089 5.54553 20.3785
2.00072 4.7297 17.1462
1.92717 5.56525 19.4595
2.09543 5.25963 18.6966
1.94334 4.73987 17.9231
1.81709 4.97532 19.7019
2.03799 5.19585 19.1215
1.87516 4.97652 17.2924
1.72222 4.54517 16.7469
1.66211 4.79183 19.0331
1.8022 5.16203 18.8579
1.84138 4.85569 18.4455
1.77714 5.03676 18.4933
1.80869 5.37952 18.9268
1.80244 4.89072 18.784
1.80646 4.86158 16.9455
1.73842 5.18582 18.6027
1.8329 5.32468 20.2061
2.01789 5.35646 18.8652
1.71214 4.79945 18.4273
1.76854 5.17057 19.9104
1.85244 4.93045 18.3851
1.77165 4.95254 18.6716
1.76827 5.33768 19.8157
1.88161 5.04209 18.292
1.61145 5.1379 19.1559
1.81011 5.08728 17.7952
1.72844 4.72702 17.9475
1.79279 4.65615 16.1449
1.47141 4.87979 20.5188
1.84283 5.15664 19.6929
1.81884 5.09617 17.8667
1.65382 4.88657 19.3361
1.7041 4.98707 18.6608
1.84936 5.03307 19.6899
1.75953 4.55288 17.6982
1.71667 4.94814 16.194
1.55991 5.00197 20.056
1.91958 5.17903 18.4194
1.80736 5.64233 21.5127
1.84122 5.34343 18.7472
1.70941 5.201 20.785
1.95392 5.50778 19.4859
1.75356 4.67762 18.186
1.74475 5.34617 19.5716
1.80984 5.13811 19.19
1.85086 4.88832 17.8937
1.6557 4.9086 18.1788
1.62814 5.11573 19.0171
1.76298 5.02964 19.4267
1.78963 4.96258 19.554
1.78339 5.32796 20.6365
1.90821 5.02891 18.303
1.67548 5.15483 18.8105
1.71655 4.29636 18.4379
1.60014 4.85619 20.3389
1.80022 5.53514 18.1531
1.72523 4.64758 20.5739
1.9892 5.32812 17.7795
1.6713 5.43628 19.9107
1.79017 4.56401 17.3602
1.66127 5.12934 19.0981
1.7313 4.95689 18.1296
1.64026 4.68976 18.6359
1.69857 4.7169 18.7548
1.7228 4.98931 17.1308
1.73195 5.07491 17.9787
1.62836 4.95069 18.857
1.83896 5.20254 19.2738
1.66784 5.08339 20.5072
1.87764 5.13635 19.666
1.83582 6.52811 23.4704
2.02404 4.95039 20.133
1.86943 5.13888 16.8846
1.5635 4.96603 22.0389
1.84864 4.84933 19.1731
1.73732 5.06258 19.393
1.79103 4.90084 17.1424
1.68552 5.41456 21.0208
1.73422 5.14977 20.0709
1.81902 5.23295 21.9694
2.01802 5.05125 18.3354
1.82293 5.11323 18.1038
1.59417 4.41103 18.4274
1.76773 4.73487 17.8473
1.69017 4.68479 17.6379
1.67427 4.74435 18.2332
1.70293 5.22117 20.6889
1.83267 5.15875 20.0456
1.80019 5.5226 22.229
1.98407 5.42809 19.863
1.78755 4.74998 18.7113
1.54863 4.90617 17.6919
1.69616 5.56957 21.3278
1.97624 5.57697 20.6119
1.86124 5.21324 19.3725
1.8392 4.9695 18.3121
1.79788 4.5028 20.6204
1.97388 5.32551 20.4512
1.81971 5.15551 18.6458
1.70759 4.65947 19.4414
1.76339 5.134 19.0863
1.7042 4.96146 18.1101
1.6905 4.56645 19.1657
1.65581 5.32831 19.3314
1.8235 5.25371 20.2238
1.96984 4.8568 20.5881
1.85996 5.36454 21.0685
2.02137 5.17818 19.2474
1.75585 4.96952 18.9315
1.92744 5.10433 18.9615
1.75159 5.15963 19.9019
1.77759 4.83885 19.5347
1.83204 5.20096 20.2126
1.71234 4.90744 17.8413
1.64168 4.99324 19.7282
1.83944 4.85158 19.5022
1.62215 4.77539 18.9274
1.7083 5.62108 20.9329
1.71669 5.17601 19.417
1.90592 4.87153 19.2907
1.81282 4.6545 17.3848
1.5894 5.08227 19.036
1.89591 4.68447 18.2187
1.61673 4.93947 19.6853
1.87428 4.92678 19.1929
1.73134 5.06601 19.8006
1.98101 5.76042 25.9542
2.08394 6.01612 23.3035
2.10405 5.10061 20.3661
1.93767 5.64971 19.5593
1.66985 4.831 20.5721
1.7581 5.14908 19.9518
1.99556 5.54213 21.6396
1.77329 5.15656 20.8503
1.77642 4.75162 18.702
1.72177 5.42603 18.8573
1.63359 4.82437 20.7846
1.91745 5.08614 19.7338
1.66705 5.02923 19.4234
1.70126 5.01041 19.8153
1.8785 5.54674 21.8014
1.91147 5.02869 19.816
1.85747 5.1939 19.397
1.72273 5.23617 20.5036
1.83186 4.55217 19.791
1.82242 5.37239 20.5339
1.74307 5.34214 21.7733
1.85831 5.44213 20.7716
1.6606 5.05282 20.4312
1.79179 5.7381 20.8201
1.70652 5.63425 20.7217
1.66768 4.509 18.6871
1.56022 5.12573 21.9057
1.8131 5.6723 22.078
1.95923 4.94895 19.4578
1.66018 5.0815 18.6924
1.62742 4.72086 21.3332
1.81828 5.94003 21.6511
1.95161 5.47217 19.2133
1.7537 5.44541 22.0505
1.84955 5.33828 22.0321
1.80959 5.42963 19.6327
1.69886 4.92675 20.4164
1.7744 5.29229 21.1979
1.67113 5.34545 18.9158
1.60283 4.85861 19.6193
1.68745 4.86313 19.6782
1.60892 4.92441 20.2046
1.68272 4.83289 17.641
1.57493 4.40572 18.3005
1.65602 5.13996 22.1846
1.81372 4.95043 19.5476
1.71936 5.07367 20.629
1.78348 4.87324 20.3778
1.66281 5.01512 18.8323
1.6755 5.6731 22.1296
1.86301 5.02423 19.5664
1.67386 5.38253 19.5237
1.64387 4.55008 20.5316
1.80907 5.49434 20.9381
1.7283 4.90184 18.261
1.60253 4.78636 21.442
1.81754 4.83802 19.9302
1.7719 5.16008 21.6933
1.82489 5.38483 19.4636
1.72541 4.93731 19.0425
1.7521 5.5082 21.5267
1.83174 4.99698 21.1165
1.77521 4.98432 17.8979
1.54373 4.96266 19.7903
1.68099 4.63595 19.8183
1.69676 4.96602 19.7288
1.66458 5.19439 18.4316
1.56965 4.83318 18.2455
1.47941 5.05544 20.8842
1.70866 5.52601 23.2429
1.99303 9.10817 38.3725
2.63833 6.35612 22.011
1.82689 4.94083 20.1079
1.63995 5.01643 19.6266
1.55195 5.08518 21.9162
1.80485 5.39944 21.804
1.78561 5.35816 19.7305
1.73863 5.30295 20.2868
1.66183 5.22299 19.5497
1.56653 5.0212 23.6384
1.86724 5.82206 20.2021
1.58578 4.79161 18.3181
1.48628 5.16527 20.5049
1.6768 4.91576 18.2221
1.52799 4.81224 21.4063
1.76511 5.07592 18.7677
1.54519 4.68474 20.9287
1.68967 5.6393 22.6867
1.84282 5.1977 20.8958
1.69775 5.53253 19.1143
1.62957 4.64971 22.3886
1.75838 5.51906 19.8195
1.62489 5.20106 19.8495
1.55626 4.99908 19.3366
1.60692 5.35771 22.2064
1.81375 5.07952 21.4281
1.62533 5.84973 21.5938
1.855 5.21693 23.5604
2.0196 5.72092 21.8299
1.9125 4.893 20.1718
1.72048 5.56633 20.3716
1.64197 4.85731 21.4483
1.67854 5.59078 21.3348
1.80625 5.1857 21.3464
1.66637 5.90355 23.4918
1.76142 4.94199 19.895
1.60751 5.36711 21.7732
1.79968 4.98683 20.384
1.68682 5.07576 22.2952
1.76554 5.2866 19.4572
1.67765 5.1713 19.7963
1.69123 4.46626 17.4564
1.61102 5.01006 19.7479
1.7238 4.89635 19.329
1.55903 5.34252 22.7887
1.90538 5.31629 20.6857
1.79037 5.1974 20.461
1.70153 5.12961 19.5786
1.57402 5.05391 19.6596
1.70182 4.85115 20.4191
1.77362 5.27953 20.9272
1.9959 5.82277 25.261
2.05788 5.47408 19.8897
1.67298 5.06039 20.5715
1.74638 5.51202 20.9552
2.00244 5.15925 21.4947
1.76459 5.31861 22.6162
1.92811 5.27459 22.4348
1.90601 6.12683 22.0231
2.00836 5.56089 20.647
1.86824 4.9655 22.608
1.94449 5.35861 19.4787
1.79229 5.69525 22.3663
1.85291 4.77817 20.2013
1.7569 5.4121 25.5028
2.01285 6.42009 21.4052
1.97167 6.04167 20.8645
1.85828 5.37115 23.0268
2.12276 5.50377 22.636
1.89218 4.67139 22.2869
1.97072 5.4149 22.1425
1.93574 6.22174 23.5679
2.31794 5.72362 23.1387
2.04057 5.49483 18.5803
1.72427 0 0