# pn-170911/RbIIF-69-RbIIA-1280-1959.psd
# Power spectrum* (dif=0,1,2) (really just |FT|^2)
# NOTE: only the first half! (symmetric)
# weeks: 1280-1959
# 418 clock-days, 17 excluded
# PSD: 1441
4715.32 0.204699 0.00843953
270935 2.49466 0.00433147
1.75961e+06 39.5503 0.00526762
129106 4.4195 0.00428643
115309 8.0188 0.00485733
49575.5 4.30679 0.00490317
35655.6 4.85735 0.00506685
24829.7 4.50578 0.00571223
20227.5 4.72353 0.0059787
15003.4 4.08 0.00581831
12487.3 4.40602 0.00633362
10255.3 4.27214 0.00639688
9281.89 4.68416 0.00717588
6791.59 4.36457 0.00762294
5885.74 4.09127 0.00779559
5667.46 4.46142 0.00939256
5000.77 4.53525 0.0106823
3983.31 4.07431 0.00957568
3826.83 4.24626 0.0109321
3483.54 4.24592 0.0121784
3136.54 4.31385 0.0123565
2622.26 4.06137 0.0123081
2585.68 4.53706 0.0146813
2359.91 4.14583 0.0151655
2058.3 4.00754 0.0153969
2020.76 4.2466 0.018655
1669.02 4.03402 0.017036
1560.75 3.73574 0.0183475
1552.48 4.37267 0.0210198
1555.1 4.52388 0.0213518
1332.41 3.97637 0.021605
1283.85 4.48491 0.0259594
1245.55 4.46073 0.0259472
1168.85 4.50881 0.0277595
1093.99 4.52867 0.029987
1040.53 4.16172 0.0280968
1053.99 4.77309 0.0344863
909.801 4.39514 0.0334079
827.607 4.14758 0.0315295
888.736 4.67378 0.0385844
795.8 4.64003 0.0405219
706.207 4.13031 0.0366129
726.35 4.33382 0.0409978
666.426 4.14672 0.0416996
651.592 4.26201 0.0434526
655.663 4.58771 0.0480116
602.948 4.46286 0.047936
544.622 3.92566 0.0437073
547.024 4.31185 0.0519427
499.227 4.49107 0.0566145
496.243 4.26464 0.0554754
485.998 4.42994 0.0585006
463.202 4.43048 0.061783
446.355 4.2882 0.0604034
492.793 4.67702 0.0693011
428.319 4.28917 0.0667841
382.817 3.98477 0.0641595
415.48 4.72875 0.0791477
394.863 4.51482 0.0795568
367.115 4.48067 0.0777372
389.761 4.7219 0.0845363
342.282 4.53619 0.0838952
338.343 4.39933 0.0847266
343.229 4.43661 0.0878645
315.449 4.48182 0.0935371
292.086 4.64295 0.09984
279.763 4.08157 0.0863046
272.356 4.21125 0.0922834
284.999 4.74857 0.108451
263.59 4.84115 0.111323
254.198 4.36429 0.104625
252.927 4.40705 0.109945
217.992 3.78727 0.0971761
222.632 4.15938 0.111963
230.106 4.49734 0.12038
218.678 4.19785 0.116719
221.191 4.43685 0.125521
211.552 4.27886 0.122072
201.078 4.40234 0.131819
220.179 4.60074 0.141863
209.121 4.64879 0.146599
203.602 4.44483 0.142345
209.081 4.47549 0.145746
185.988 4.70693 0.161636
176.966 4.68621 0.159907
172.99 4.21201 0.150356
182.185 4.59979 0.163857
155.291 4.09081 0.14975
155.871 4.28563 0.161575
161.098 4.51803 0.174362
167.772 4.7593 0.186444
141.06 3.92929 0.158625
150.288 4.24084 0.176123
148.48 4.58381 0.189353
139.207 4.30029 0.183168
148.689 4.5865 0.199076
128.944 4.27756 0.190383
141.906 4.64565 0.210542
133.598 4.2459 0.197748
121.303 4.05323 0.192449
133.604 4.57224 0.220068
139.754 4.8693 0.237389
121.369 4.07981 0.21045
122.11 4.33645 0.223345
128.072 4.50015 0.238446
119.223 4.63573 0.247656
126.597 4.88909 0.269423
113.097 4.62883 0.253822
111.083 4.40676 0.246262
117.996 4.82937 0.271887
106.096 4.31188 0.248594
111.407 4.80247 0.288394
100.798 4.34441 0.25751
92.0419 3.9513 0.237358
99.4771 4.51943 0.287529
94.5816 4.69399 0.302899
86.8723 4.17771 0.26825
91.3695 4.28853 0.279468
93.7732 4.52035 0.299157
88.7659 4.3354 0.29431
85 4.25291 0.295523
91.5632 4.70345 0.333625
83.6473 4.52409 0.313299
85.6199 4.76011 0.347558
81.9271 4.31439 0.315147
79.7413 4.31504 0.32004
76.324 4.29205 0.329452
79.2603 4.51202 0.350466
73.2419 4.22583 0.328698
76.5399 4.51549 0.360949
73.6582 4.49777 0.368119
77.4825 4.56114 0.369244
69.3564 4.11904 0.341943
70.9239 4.48362 0.384081
68.8385 4.19888 0.359586
63.5102 3.9139 0.340056
64.5691 4.19078 0.371824
65.5528 4.61078 0.420194
61.7951 4.14183 0.377056
60.596 4.05521 0.378164
66.5272 4.48655 0.418676
63.362 4.29971 0.409688
63.2246 4.45487 0.432335
57.8527 4.18504 0.401786
54.1983 3.96281 0.390797
63.5411 4.67544 0.468618
56.7219 4.25158 0.436622
58.1203 4.34694 0.44527
54.7559 4.29949 0.447491
55.6429 4.05329 0.432736
61.6446 4.78334 0.510225
52.2571 4.21657 0.455448
51.186 4.85384 0.530655
54.0707 4.45307 0.497459
55.7176 4.3451 0.485841
48.2067 4.1639 0.479601
50.9198 4.41204 0.515264
49.8812 4.34128 0.495246
52.5239 4.55204 0.542158
50.117 4.61033 0.553107
52.8908 4.79556 0.584601
46.926 4.34814 0.533598
51.1918 4.83974 0.604218
46.9644 4.29335 0.544148
46.7209 4.51473 0.576287
48.8189 4.60347 0.590177
44.8025 4.77492 0.624681
41.9572 4.25005 0.565408
46.6256 4.74328 0.638692
43.9544 4.42899 0.615232
44.3868 4.54259 0.616807
44.1406 4.59344 0.635877
41.7843 4.4683 0.619449
41.8463 4.28791 0.609252
43.9168 4.6228 0.671064
43.4286 4.52149 0.649453
39.9071 4.40159 0.637528
41.2666 4.46409 0.650227
41.8464 4.6624 0.687877
38.8881 4.54032 0.6903
41.0229 4.65182 0.712335
40.9467 4.45794 0.686548
37.2831 4.16846 0.674074
37.884 4.50245 0.711251
41.8104 4.90209 0.785595
37.8823 4.59577 0.736411
39.6313 4.42787 0.730395
38.0638 4.38576 0.708998
39.8772 4.66578 0.773962
38.9097 4.66 0.785595
36.683 4.60629 0.79882
34.4672 4.24862 0.735808
35.6556 4.57299 0.799053
37.2861 4.5232 0.796636
33.9356 4.19512 0.743514
35.4093 4.90756 0.890601
35.1186 4.66995 0.837892
33.2976 4.36888 0.786571
35.4449 4.45311 0.838434
32.0887 4.17417 0.784615
31.6513 4.32299 0.809876
32.9576 4.67764 0.88851
31.35 4.05085 0.769285
29.4067 4.07159 0.783334
31.5458 4.49862 0.875205
30.8059 4.60139 0.912431
31.7026 4.5035 0.896445
29.0053 4.38594 0.876094
30.3892 4.54977 0.914222
31.5913 4.71047 0.96393
26.1144 4.17765 0.887749
28.003 4.36917 0.906151
28.5334 4.56108 0.960686
29.0937 4.28634 0.923011
30.7801 4.92667 1.0719
26.8196 4.43764 0.965918
28.2078 4.1917 0.889514
27.1722 4.36944 0.960964
27.9721 4.71593 1.05531
30.1807 5.05655 1.13825
29.0914 4.89432 1.10672
26.1038 4.29325 0.990452
27.0972 4.38209 1.00134
26.5596 4.47576 1.05949
26.7217 4.29176 1.00947
29.534 5.22189 1.24193
25.1209 4.55219 1.108
26.88 4.98152 1.18904
25.1976 4.16835 1.01466
25.2662 4.59422 1.13228
26.7575 5.16012 1.28269
26.4094 5.09756 1.29788
22.8453 4.26135 1.07462
25.7172 4.5852 1.1596
24.696 4.49843 1.16627
26.3283 4.58347 1.18092
23.2007 4.59083 1.18952
20.7337 3.82319 1.02215
23.8803 4.58811 1.20724
21.5965 4.10387 1.11421
24.3794 4.50955 1.21119
21.8553 4.37302 1.17993
22.2843 4.34255 1.20696
22.0404 4.48791 1.19601
20.661 4.53545 1.26577
22.4354 4.55879 1.25839
23.0019 4.86418 1.36849
20.857 4.13199 1.15959
20.4797 4.19528 1.21252
22.4517 4.53666 1.32109
19.4669 4.08921 1.19297
21.2824 4.4585 1.27683
22.5785 4.71205 1.38181
21.0397 4.36338 1.32063
20.3835 4.64271 1.43257
20.4892 4.48351 1.36689
20.4565 4.5208 1.34313
17.5013 4.21385 1.29442
20.9569 4.81267 1.43217
18.7131 4.35203 1.37265
20.8817 4.80248 1.52335
19.8159 4.7294 1.51065
20.3812 4.878 1.51117
18.0402 4.44768 1.43536
18.7277 4.51731 1.44919
20.3175 4.99662 1.62765
19.0273 4.47669 1.47852
17.948 4.37996 1.4717
19.2547 4.63572 1.50623
18.0998 4.63031 1.59382
19.0429 4.88249 1.61726
16.8054 4.28462 1.49816
17.9336 4.73389 1.59464
18.3087 4.73031 1.65908
18.8043 4.56071 1.53725
17.7977 4.88276 1.71179
16.1599 4.39603 1.56736
16.3286 4.33154 1.55953
15.62 4.30309 1.55981
18.4343 4.52526 1.61678
16.2712 4.20369 1.52972
16.5282 4.73242 1.70998
15.5311 4.10395 1.51154
17.7574 5.2362 1.95228
16.8513 4.74394 1.77758
16.8376 4.80525 1.82666
16.4383 4.8125 1.79271
15.6207 4.37275 1.63482
16.0954 4.41072 1.67685
15.9508 4.81037 1.84889
15.3768 4.38108 1.71945
15.9788 4.70715 1.82657
16.2985 4.713 1.85194
13.375 3.94548 1.56379
15.0171 4.64961 1.85524
14.3402 4.40633 1.76548
14.2901 4.2543 1.72496
14.1465 4.56388 1.88379
14.6232 4.54999 1.85493
14.9128 4.59777 1.90062
14.6999 4.48459 1.8168
13.0972 4.21175 1.80527
14.0723 4.68185 1.94545
15.2502 4.90118 2.08741
13.1313 4.20618 1.79598
13.8905 4.46374 1.87056
13.7606 4.50303 1.93061
15.142 4.75801 2.08138
13.3619 4.57841 1.96818
13.5019 4.47829 1.96555
12.7631 4.2924 1.88857
12.9266 4.40242 1.99772
12.6828 4.13303 1.8891
12.6392 4.2851 1.897
13.0652 4.24733 1.90324
13.275 4.48446 2.0235
13.0087 4.69248 2.14211
12.2424 4.15871 1.89407
12.9462 4.53423 2.13863
12.786 4.40255 2.1063
12.1858 4.32624 2.01366
13.5435 4.64581 2.13081
13.2318 4.81668 2.31273
11.9224 4.57355 2.23412
13.0536 4.49434 2.06056
11.0558 4.2963 2.15696
13.286 4.73484 2.25111
12.1767 4.347 2.18021
12.5412 4.53111 2.1814
13.2942 4.95613 2.51125
12.9233 4.51447 2.22163
12.5989 4.80993 2.36996
11.606 4.46547 2.26263
13.1964 4.42648 2.21181
12.4611 4.72711 2.39362
12.1342 4.51749 2.24749
10.3945 4.09642 2.13375
11.7342 4.65771 2.41373
12.124 4.53312 2.3794
12.0992 4.78537 2.5099
12.4386 4.93491 2.57778
11.847 4.88022 2.61219
12.645 4.78422 2.50392
12.6775 5.17671 2.70522
11.8204 4.80082 2.60631
11.9262 4.61086 2.52572
11.2189 4.34306 2.40404
12.274 4.5827 2.48598
10.0307 4.2101 2.30791
10.546 4.35818 2.42852
12.5878 5.1417 2.87687
11.3094 4.76271 2.6188
10.9666 4.4564 2.50246
10.635 4.6259 2.65927
12.0483 4.95745 2.77409
10.552 4.2261 2.41439
10.6639 4.75883 2.75239
10.7953 4.46738 2.58601
10.281 4.37734 2.47977
10.3429 4.25793 2.55229
10.859 4.83078 2.82727
11.3557 4.97808 3.052
11.4132 5.16577 2.93456
10.4764 4.34023 2.61274
11.3007 5.04136 3.04094
10.2932 4.41214 2.56492
9.9895 4.7188 2.85316
9.67657 4.23336 2.65527
9.16457 4.01831 2.43916
9.68038 4.18907 2.55519
9.82908 4.33876 2.71334
9.98496 4.40629 2.889
10.628 4.57333 2.70159
9.6138 4.40487 2.77649
10.3365 4.72574 2.92403
9.64031 4.74912 3.07185
10.3724 4.92608 3.06087
10.0315 4.60357 2.93491
10.3982 5.00812 3.28025
9.11756 4.44854 2.82011
9.62466 4.72154 3.05078
9.55235 4.4816 2.99003
9.64634 4.79094 3.18146
9.56689 4.9275 3.31604
9.69509 4.66471 2.99716
9.90315 4.90301 3.28925
9.72966 4.77567 3.21482
9.48993 4.88613 3.36466
9.62264 4.6735 3.02454
10.5456 5.0032 3.37158
9.26516 4.53071 3.24437
9.5155 4.49306 3.04127
9.10677 4.54843 3.21127
8.8669 4.61573 3.17377
8.8201 4.45524 3.13997
9.06178 4.76355 3.2209
8.44538 4.3642 3.07335
8.8895 4.99761 3.51754
9.07874 4.93095 3.47371
9.40541 4.83015 3.3815
8.54548 4.66617 3.38442
8.5488 4.57426 3.22354
8.28879 4.36209 3.24107
8.75445 4.66811 3.31122
8.70215 4.65497 3.34128
8.99654 4.85356 3.56048
8.18596 4.60878 3.38073
8.68768 4.81872 3.54572
8.01177 4.28967 3.35396
7.8611 4.48825 3.38918
8.45323 4.89472 3.57725
7.77108 4.03157 3.06434
8.10861 4.6991 3.57442
8.25096 4.78475 3.67236
8.44784 4.82879 3.69995
7.99208 4.23775 3.13084
8.15029 4.71377 3.66649
8.70623 5.2055 3.9694
7.27866 4.56335 3.53583
7.2436 4.30112 3.38679
7.39346 4.42891 3.45334
7.89475 5.23026 4.01397
7.97432 4.60373 3.65868
7.86019 4.68987 3.74687
7.56379 5.13178 4.18359
7.9894 4.93364 3.96104
8.14378 4.77237 3.72125
7.55054 4.8048 3.95868
7.39005 4.10457 3.20831
7.6885 4.9677 4.10395
7.33252 4.42926 3.72543
8.4806 5.20291 4.11517
8.09241 4.93281 4.08778
7.53518 4.76438 3.90178
7.8934 4.91044 4.09138
7.18993 4.53864 3.7447
7.48617 4.56928 3.81493
7.33948 4.5838 3.87106
7.51411 4.67826 3.868
7.57598 5.09437 4.30954
6.58418 4.2901 3.89011
7.14193 4.97912 4.18188
7.20568 4.79893 4.16088
7.23306 4.76599 4.20965
6.80436 4.36813 3.7384
7.05465 4.69118 4.04467
7.91742 5.6058 4.90238
6.94288 4.5641 4.16459
7.72101 5.00588 4.25653
6.92835 4.40556 3.98765
7.07467 4.6539 4.09194
6.83129 4.70423 4.15847
6.61279 4.74887 4.39445
6.99747 4.52568 4.06058
6.81553 4.45611 3.90751
7.2743 5.04346 4.72926
6.72077 4.67653 4.40549
6.8944 5.00258 4.46966
6.60556 4.65764 4.32185
6.47639 4.32547 3.83073
6.58922 4.85919 4.62057
6.3286 4.22239 4.01217
6.81357 4.81615 4.31694
6.11171 4.38037 4.09502
6.78874 4.87249 4.67782
6.61068 4.69114 4.53721
7.03257 5.0018 4.61292
6.9496 4.92141 4.65295
6.02347 4.55676 4.30135
6.84013 5.00609 4.74179
6.80719 4.90395 4.73802
6.51084 4.50778 4.42669
6.42973 4.42355 4.53405
6.91675 4.76948 4.62251
6.94953 5.30518 5.03566
7.05396 5.11051 4.94186
6.72012 4.63435 4.42141
6.27641 4.70115 4.78181
6.08287 4.76501 4.92005
6.52833 4.94715 4.77664
6.15643 4.70256 4.58147
6.16749 4.67206 4.71342
5.65561 4.37824 4.59102
6.54246 5.16583 5.13417
6.19646 4.55267 4.61704
6.15172 4.43105 4.48264
5.99896 4.45396 4.5796
5.91615 4.54603 4.7082
6.69252 4.79088 4.89928
6.35285 4.74669 4.71659
6.26614 4.83636 5.10973
5.86696 4.42137 4.5988
5.9377 4.93405 5.47525
6.33971 4.748 4.9112
6.12687 4.69878 4.78732
5.84062 4.66461 4.83126
5.5094 4.35881 4.83415
5.75802 4.63007 4.87354
5.36193 4.62413 5.04919
5.96203 4.77893 5.01601
5.2372 4.30678 4.82447
6.09622 4.73214 5.04773
5.62598 4.61216 5.08391
5.41915 4.7266 5.28364
6.19753 4.52851 4.74696
5.57749 4.52292 5.13095
5.61146 4.57163 4.99199
5.56164 4.44416 5.20395
6.43155 5.10049 5.34002
5.58161 4.5176 4.7534
5.6139 4.90341 5.69543
5.4394 4.55661 5.23112
5.85279 4.67419 5.13508
5.54722 4.68759 5.20836
5.70873 4.80981 5.33842
5.51837 4.92542 5.61985
5.50452 4.64132 5.49958
5.81953 4.90726 5.5639
5.79247 4.73449 5.55799
5.80798 5.07561 5.74477
5.97404 5.2433 6.03348
5.8464 4.56714 5.2052
5.78891 5.16432 5.91165
5.27214 4.79827 5.72311
5.50134 4.54103 5.22064
5.34439 4.75114 5.67477
5.22884 4.63832 5.74564
5.86918 5.27491 6.03261
5.15277 4.52738 5.42414
5.28372 4.39977 5.05432
5.65451 4.80539 5.7307
5.61572 4.9561 6.14332
5.44474 4.64725 5.54704
5.27819 4.85291 5.86242
5.44069 5.12101 6.29715
6.0995 5.36635 6.24364
4.86317 4.67542 5.837
4.96526 4.5339 5.5315
5.0898 4.74595 5.80987
5.3996 4.86391 5.93408
5.09763 4.63327 5.93462
5.03468 4.5651 5.78359
5.42141 4.63576 5.88197
5.45528 4.81335 5.92525
4.97858 4.77473 5.83663
4.73185 4.3009 5.22368
4.76647 4.66003 5.84899
5.26788 4.99447 6.74614
5.51542 5.05887 6.06878
5.534 5.41814 6.54225
4.57614 4.51607 6.13193
5.39256 5.03808 6.35153
5.08583 5.21002 6.74106
4.93892 4.73194 6.07307
4.96299 4.58372 6.01494
4.73175 4.76554 6.26242
5.38401 5.12383 6.91751
5.36652 5.25582 6.70652
4.97471 4.9438 6.36693
4.65392 4.53557 5.88765
5.10416 5.13736 6.66012
4.92372 4.7835 6.43767
4.73173 4.75935 6.41023
5.0622 5.09805 6.74968
4.98565 5.14184 6.81822
4.48634 4.47102 6.28484
5.12196 5.1264 6.58566
4.90653 5.22465 6.55878
4.65402 4.83192 6.73262
4.93707 5.31751 7.19708
4.82921 4.95254 6.92688
4.66794 5.01675 6.65847
4.55631 4.99707 7.1199
4.77723 4.82686 6.72714
4.97452 5.28518 7.36426
5.26549 5.31703 7.16133
5.01925 4.97261 7.00758
5.40566 5.98239 8.09415
5.23541 5.60677 7.8915
4.81098 4.74953 6.76584
4.97372 4.86196 6.57338
4.53411 4.97072 7.09569
4.63419 4.91885 6.81977
4.47791 4.93849 7.20368
4.52394 5.11657 8.00587
6.87305 8.52738 11.2914
5.17161 5.38809 7.16638
3.93911 4.59503 7.10495
4.5918 4.7636 7.00292
4.8414 5.08771 6.76474
4.36717 4.91062 7.05941
4.15491 4.49217 6.64466
4.11062 4.67388 6.91597
4.14941 4.79275 6.82922
4.1627 4.66889 6.92016
3.85282 4.23131 6.27281
4.16781 4.62062 6.8079
4.17731 4.75231 6.98859
4.26204 4.80794 6.89705
4.15986 5.11333 7.51391
4.21685 4.63057 6.94218
4.23763 4.68051 7.22482
4.38671 4.80846 6.91995
3.89058 4.49077 6.68454
4.07477 4.71285 6.97059
4.43666 4.69534 6.97073
3.87523 4.57031 7.0305
4.0471 4.4456 6.58874
4.15835 4.91146 7.59024
4.5891 5.26242 7.77976
3.90967 4.67329 7.31077
4.46694 4.97743 7.559
4.33843 4.65374 7.22228
3.99336 4.57686 7.14431
4.09622 4.81218 7.35425
4.34128 5.08674 7.68259
3.93729 4.95421 8.12979
4.24442 4.65601 7.15353
4.02463 4.54488 7.44142
4.33967 5.37215 8.09273
4.01233 4.74622 7.63984
4.03536 4.48963 6.85536
4.03614 4.80058 7.26753
4.10417 4.79861 7.488
3.92159 4.91983 7.91543
3.97629 4.57578 7.13762
3.59958 4.56193 7.11243
4.23886 5.12978 8.37427
3.90669 5.15449 8.25729
4.03821 5.11853 8.59171
4.53419 4.84548 7.21326
3.98096 5.3925 9.36538
4.63602 5.56159 8.36874
4.07966 4.89631 8.3658
4.22865 5.02336 8.08759
3.76406 4.61915 7.39489
3.70013 4.42131 7.31577
3.76784 5.25455 8.7935
3.98158 4.83778 8.11396
4.09151 5.00474 8.30708
4.24754 5.58414 9.2402
4.2416 5.51474 8.91387
3.9755 4.72896 7.45144
3.48684 4.16747 6.8004
3.83363 5.07033 8.65942
3.5753 4.7912 8.05034
3.65632 4.66355 8.04049
4.15709 4.9253 8.11706
3.79415 4.83936 7.88473
3.77098 4.69216 8.14711
3.57643 4.68309 7.97238
3.62874 4.32344 7.42487
3.74988 4.96708 8.45934
3.88053 5.40823 9.06113
3.89264 5.11864 8.96263
3.98754 4.98272 8.1242
3.46244 4.55353 8.11794
3.96217 4.86099 8.33561
3.70791 4.94177 8.67859
3.94865 5.0642 8.86512
3.7461 5.11898 9.13148
3.87241 5.14846 8.88617
3.80377 5.16671 8.96067
3.80934 5.13077 8.52197
3.35866 4.65792 8.34027
4.02576 5.43937 9.7525
4.09139 5.54003 9.21578
3.64083 4.45916 7.84082
3.43617 5.05276 9.23591
4.03758 5.39084 9.33603
3.6476 4.84298 8.63711
3.51476 4.64271 8.40521
3.22319 4.57693 8.73325
4.00992 5.33565 9.42993
3.74781 5.09927 9.22878
3.55429 4.69413 8.79808
3.97535 5.25669 9.34296
3.88402 4.76547 8.5854
3.5124 4.84532 9.30841
3.588 4.50056 8.30846
3.91531 5.28242 8.9392
3.44573 4.95475 9.23213
3.59897 4.68332 8.4721
3.59162 5.04374 9.93114
3.37688 4.79026 8.86404
3.65794 5.03539 9.10256
3.55676 5.09342 9.75193
3.85005 5.02509 9.12336
3.42796 5.04675 9.18199
3.50212 4.66646 8.74495
3.49984 4.93634 9.56437
3.56685 5.15041 9.46688
3.5537 4.7282 8.59424
3.3218 4.64551 8.89786
3.61195 5.40451 10.0473
3.3907 4.94367 9.05312
3.0798 4.30429 8.06102
3.04655 4.34955 8.99879
3.41205 4.94213 9.20916
3.44076 4.98258 9.86886
3.53553 4.95299 9.16381
3.30107 4.29269 8.48648
3.42993 4.70479 8.65088
3.30612 4.87221 9.31208
3.34754 4.76398 9.30244
3.51709 5.40434 10.1982
3.2888 4.88648 9.63552
3.33591 4.75552 9.09412
3.33981 5.17362 10.267
3.30492 5.01196 9.73296
3.29281 5.03304 10.2
3.4934 4.99248 9.42814
3.22944 5.01551 10.1675
3.3783 4.83744 9.53314
3.29915 4.96242 10.1635
3.53698 4.97957 10.0498
3.52242 4.98974 9.29486
3.36903 5.17617 10.1882
3.25411 4.80898 9.69463
3.17271 4.58607 9.22345
3.43039 5.02452 9.61185
3.21483 4.63226 9.41626
3.23648 4.90486 10.2277
3.42502 5.47156 10.9142
3.42802 4.79714 9.15617
3.0629 4.6141 9.27443
3.23203 4.77939 9.84516
3.14369 4.90723 10.2178
3.2081 4.82184 9.24963
2.91396 4.39458 9.34415
2.9327 4.52565 9.25752
3.20028 5.0486 10.3776
3.09874 5.12427 10.8577
3.55202 5.55656 11.1311
3.14351 4.96532 9.71687
2.95979 4.72954 10.2024
3.30503 5.28989 10.7502
3.38995 5.28712 11.282
3.19716 5.19794 10.5612
3.20502 4.86746 10.0782
3.25237 5.31201 11.2135
2.92269 4.63191 9.61032
3.15066 4.94619 11.216
3.30413 4.99786 10.0637
3.21005 5.26368 10.4378
2.85928 4.71534 10.2607
3.07425 4.93352 10.2001
2.74886 4.60828 9.90526
3.01365 4.55699 9.82469
3.07565 5.08417 10.8809
3.33407 5.49043 10.7399
2.88005 4.94796 10.8821
2.90756 4.85813 11.3842
3.24677 5.17594 10.7776
3.08753 4.73353 10.2222
3.05921 5.19785 12.0398
3.24832 5.24639 10.7243
2.98598 4.90345 10.3734
2.93912 4.92721 10.6605
2.86229 4.81102 11.2145
3.23307 5.31598 11.0171
3.08853 4.88056 10.7928
2.80666 4.64139 10.0926
3.21433 5.22797 11.1395
2.88762 4.67143 9.81784
2.93812 5.17537 11.3322
2.99108 4.89807 10.726
2.80429 4.88354 10.9445
2.81424 5.04456 11.7011
2.91326 4.7845 10.892
2.96843 4.93656 11.2827
3.02845 4.80586 10.4708
2.89527 4.85467 10.8595
2.95738 4.64457 9.54205
2.84104 5.07716 11.2461
2.7111 4.65779 10.877
3.18234 5.00772 11.1243
2.85643 5.06458 11.388
2.93931 4.85806 11.176
2.86393 4.60647 10.4757
2.67662 4.55309 10.3483
2.67043 4.60411 10.4542
3.05891 5.35763 11.7102
2.77824 4.93383 10.9333
2.70195 4.89926 10.9506
2.71427 4.62745 11.2344
2.94685 5.08224 11.925
3.0812 5.22293 11.6031
2.69226 4.99091 11.7927
2.98375 5.17494 11.7433
2.96185 5.3249 11.4752
2.71605 4.94379 11.4034
2.97861 4.981 11.4193
2.75226 4.99713 11.4016
2.73466 5.28217 12.9765
2.98149 5.05288 11.1436
2.64506 4.59238 11.1021
2.92855 5.29467 11.78
2.7341 4.71652 11.6951
3.06839 5.49256 12.2882
2.89407 5.40468 12.6553
2.82122 5.13507 12.5111
2.78428 5.23914 12.2381
2.79527 5.06422 12.0547
2.9045 5.22214 12.7354
3.11579 4.60474 10.8494
2.94424 5.35307 12.6038
2.83452 5.14697 12.548
3.02759 5.57525 13.2114
2.84004 4.92 12.0029
2.77406 4.78346 11.1147
2.4302 4.55964 11.1745
2.76994 5.24798 12.2591
2.71006 5.02566 12.5905
2.74401 4.93468 12.0035
2.97258 5.31391 13.1774
2.91874 5.66203 13.1506
2.83278 5.04542 12.4239
2.98984 5.18983 13.087
3.03661 4.9313 11.2448
2.53558 4.61145 11.3898
2.87636 5.24341 12.1231
2.70606 4.8116 12.1263
2.88863 5.42245 13.4266
2.85941 5.31805 12.823
2.65936 5.01901 11.582
2.65723 5.02974 13.7435
3.04308 5.51857 12.5524
2.78258 5.23248 12.9002
2.63057 5.15848 13.3647
2.87401 5.04602 12.326
2.57728 5.08033 12.8031
2.67357 5.08303 12.5482
2.74568 5.04378 12.3804
2.69871 5.36242 13.1713
2.54892 4.90366 12.3941
2.76645 5.59535 13.5834
2.36287 4.95917 13.5474
2.55645 4.63138 11.4147
2.51283 5.05357 12.6275
2.54264 5.0871 13.0499
2.78627 4.85835 12.4587
2.65732 5.23897 13.2904
2.76068 5.38217 13.6629
2.73442 5.14185 12.5892
2.81875 5.20989 13.0882
2.74084 5.44937 14.1956
2.67824 5.06376 13.3576
2.81003 5.34706 13.1891
2.7454 5.21805 13.6194
2.83122 5.01828 13.5026
2.93875 5.51641 13.4857
2.66865 5.48825 13.9148
2.62897 5.30177 13.8839
2.82462 5.16474 13.3673
2.8373 5.65564 14.1879
2.66706 5.21254 14.2506
2.8391 5.74754 14.655
2.69042 5.40111 14.3639
2.89665 5.50744 13.9378
2.78619 5.85256 14.8114
2.77109 5.63727 15.0285
3.09867 6.06542 15.7292
2.93427 5.82218 13.7959
2.49231 5.16958 16.0356
3.00028 5.87008 14.9087
3.00677 6.1575 15.3299
2.82708 6.00144 16.6762
2.85579 5.32932 13.3134
2.60408 5.59734 14.5668
2.53207 5.22881 13.8165
2.44998 4.90335 13.9659
2.77747 5.68419 14.7783
2.76099 5.58413 14.9556
2.72893 5.4224 14.2765
2.64443 5.18075 13.8907
2.66078 5.44126 13.9243
2.30934 4.9939 14.6191
2.62235 5.15347 13.4206
2.54532 5.09115 13.3641
2.46692 5.28382 14.0896
2.49904 5.18655 13.684
2.39901 4.58134 12.4816
2.41205 4.81825 13.265
2.36865 5.05168 14.0603
2.50286 5.35312 14.6217
2.62807 5.26438 14.3868
2.47537 5.25715 13.7957
2.40373 4.86051 12.3762
2.31323 5.19668 14.5164
2.50149 5.14484 13.3536
2.4365 5.07019 14.6634
2.58318 5.4661 14.3706
2.43536 5.39475 15.3748
2.28664 4.86308 13.2318
2.46392 4.99204 12.9482
2.40151 5.0999 13.9852
2.37589 4.84816 13.5515
2.36528 5.1204 13.6397
2.28079 5.10659 15.0781
2.48699 4.71809 13.0995
2.71278 5.83799 14.9593
2.27356 5.00016 14.3244
2.39706 5.15611 14.0084
2.34171 5.32458 14.7781
2.51495 5.46487 15.6608
2.47939 5.30874 14.3135
2.29885 4.84963 13.6016
2.21901 5.01661 13.4418
2.2401 5.09036 14.706
2.37895 5.0677 14.6987
2.33262 4.99605 13.999
2.45092 5.4123 14.5633
2.41249 5.01213 14.3325
2.44364 5.01907 13.9669
2.27966 4.91003 14.3521
2.46729 5.36615 15.5737
2.59705 5.33571 14.4112
2.41544 5.13007 14.312
2.29279 5.41351 15.0636
2.31703 4.75483 13.925
2.39875 5.37326 14.8379
2.18749 5.11433 16.1292
2.63826 5.16156 14.5463
2.4204 5.07266 13.7985
2.32507 4.85289 14.6749
2.36171 5.10843 14.0256
2.24122 5.36893 15.3151
2.3023 5.0011 14.6878
2.57891 5.46587 14.651
2.15856 5.29519 15.1244
2.17062 5.16534 15.5807
2.28539 5.07797 15.0597
2.30887 4.78864 13.2541
2.13711 4.90427 15.4308
2.36226 5.05117 15.2666
2.30248 5.12414 14.8724
2.22781 5.12414 13.9988
2.19403 5.49612 15.7712
2.27202 5.10755 14.6415
2.27323 5.05233 14.8415
2.14964 4.83359 14.2479
2.21518 5.03896 15.2867
2.5849 5.55052 14.6231
2.05792 4.90106 15.621
2.32347 5.21323 14.5482
2.15494 4.62346 14.1215
2.20049 4.78748 14.3379
2.22304 5.2386 14.8423
1.96988 4.79494 15.3955
2.42032 5.19297 14.5652
2.22433 5.48659 16.2729
2.17319 4.81623 13.4794
2.08584 4.99964 16.9779
2.62485 5.79796 16.4577
2.35454 5.54539 16.4321
2.36544 5.47698 16.2599
2.20176 4.87322 14.3187
2.30665 5.30325 14.8498
2.21758 5.31094 16.2514
2.33068 5.41435 15.5138
2.2836 4.95811 15.5969
2.26528 5.31279 16.9141
2.43541 5.52707 15.7205
2.38077 5.13803 15.8629
2.51835 5.19822 14.7158
2.08521 5.29136 16.4294
2.28058 4.79613 15.3893
2.28859 5.33234 15.8778
2.25378 5.71597 17.8282
2.4312 5.37767 16.3267
2.26539 5.21384 15.8622
2.24041 5.11278 16.4548
2.39982 5.50639 16.2901
2.32801 5.41695 16.2847
2.25281 5.32269 16.3999
2.2023 5.15004 15.587
2.14309 5.25013 15.8585
2.24579 5.36726 17.1623
2.34371 5.63865 17.1526
2.48931 5.00671 14.3601
1.9664 4.845 14.6846
2.06626 5.03916 15.7616
2.10638 5.00565 15.7026
2.23393 5.26846 15.7101
2.18259 5.29719 16.99
2.19803 5.28238 17.4531
2.59563 5.40812 15.8508
2.3662 5.41107 15.1661
2.08389 5.1332 16.205
2.02389 4.66566 15.1544
2.23577 5.10534 15.8308
2.13358 5.53705 17.9629
2.38607 5.1453 16.0663
2.16727 4.87171 15.7567
2.27553 5.23794 15.6177
2.13193 5.06195 16.6057
2.23552 5.52171 16.3008
1.99867 4.90824 15.3372
2.01304 4.82657 15.6285
2.19636 5.28691 17.0226
2.30279 5.38885 16.5112
2.13755 5.01793 16.3556
2.2027 5.43231 16.3222
2.16471 4.91949 15.2727
2.05786 4.95399 16.092
2.23172 5.43512 15.8434
2.0985 4.98908 17.6297
2.45452 5.74104 16.9543
2.09682 5.00267 15.2806
1.94278 5.04776 17.3189
2.33028 5.58295 18.7636
2.43059 5.32637 16.5095
2.12891 4.52832 15.2426
2.25362 5.37776 15.9872
2.05021 5.10647 16.5602
2.17961 5.01144 16.3571
2.0928 5.62087 17.8184
2.20033 5.61064 18.3584
2.21004 5.3868 17.2626
2.13654 5.37348 16.9566
1.87234 4.84285 17.0748
2.18049 5.41143 16.7256
2.22424 5.24598 15.9769
2.0869 5.18584 15.7547
1.97759 4.83531 16.5827
2.28757 5.81726 17.9148
2.04674 5.164 16.8726
2.03922 4.98239 16.178
2.06694 5.35264 18.0288
2.14723 5.32856 16.7013
2.08495 5.24374 16.8153
1.94162 5.26977 17.6481
2.03838 4.85785 15.7672
2.06322 5.38742 17.9309
2.02421 4.77036 15.4955
1.87519 4.98348 16.6739
1.93276 4.77726 17.0194
2.09447 5.25566 16.6454
2.09561 5.07846 16.2749
2.05925 5.21913 17.483
2.10716 5.10864 16.4189
1.96746 5.06897 17.384
2.09289 5.24774 15.7797
1.98467 5.09955 17.8944
2.07747 4.95727 15.9156
2.05551 5.40061 17.65
2.06773 5.3766 17.214
2.07167 5.13996 16.8768
1.98519 5.47401 18.8194
2.13096 5.36819 18.5161
2.12954 5.78878 19.2197
2.27653 5.67765 18.2996
2.11503 5.40953 16.1364
1.87857 5.13282 17.4332
1.97553 4.91543 16.9529
1.96354 4.92575 16.7902
2.05936 5.33565 17.3792
2.05402 5.45958 18.3095
2.0176 5.15056 17.2482
2.00555 5.41047 18.5404
2.11942 5.42784 17.6928
2.18983 5.43003 18.5994
1.96422 5.24067 17.4537
2.05752 4.99171 16.3392
1.84869 5.1784 18.4297
2.10695 5.34416 17.8585
2.15845 5.37573 17.4381
2.10411 6.08513 20.3341
2.05039 5.06184 18.0784
2.17046 5.56281 18.2372
2.07603 5.41824 18.3372
2.07591 5.6022 18.626
2.08857 5.63725 20.4416
2.1182 5.22169 17.2984
1.94554 5.59078 18.3347
1.94244 5.13563 17.7694
2.00061 8.38616 40.4454
3.8322 8.0197 19.0221
2.00283 5.99438 18.1192
1.93321 5.473 17.4702
1.98329 5.21073 18.2972
1.84503 5.21341 18.4985
2.16206 5.62308 18.0661
1.90203 5.10595 17.4699
1.98714 5.42188 18.2364
1.93044 5.19817 17.6117
1.9887 5.20518 17.6458
1.8673 5.43458 18.9364
1.95871 5.35378 18.7705
2.08922 5.63238 18.1961
1.9473 5.04588 19.399
2.054 5.19762 17.5658
1.96845 5.33884 18.3667
2.02096 5.49635 19.3068
2.01819 5.73748 18.8474
1.90117 5.31919 18.3418
1.97944 4.93846 17.7574
1.95251 4.87691 18.1069
2.00657 5.55771 17.3
1.79132 4.91234 18.2796
2.03116 5.38372 17.4443
1.87302 5.22337 18.8691
1.84971 4.93808 19.4616
2.10486 5.42166 18.9173
2.13616 5.57648 18.354
1.984 5.62082 20.1923
2.23422 5.95943 19.8723
2.02839 5.27996 18.5025
1.9865 4.93078 16.9954
1.86696 4.95242 17.7987
1.98351 5.23604 18.2566
2.01872 5.24635 17.2055
1.87515 4.88889 18.7286
1.93631 5.70088 17.4483
1.87956 5.30923 18.7591
1.95319 5.20115 18.357
2.02077 5.82093 19.1962
1.98512 5.06265 19.2523
2.00142 5.43001 18.5545
1.89881 5.50405 19.8007
2.11476 5.42958 19.4719
2.0185 5.84591 21.6384
2.12892 5.33711 19.462
2.16247 5.88966 20.0262
2.0182 5.53801 19.6046
2.0094 5.22001 18.8795
1.97723 5.1985 19.5499
2.05692 5.36618 18.296
1.98415 5.3999 19.3883
2.06681 5.66476 19.5759
1.9304 5.1113 19.2288
2.12475 5.44735 18.9232
1.97332 5.38461 19.3664
2.07705 5.21542 18.7276
2.00121 5.44871 19.2439
1.96959 5.60557 18.95
1.89354 5.29399 19.9828
2.02697 5.37308 18.9764
2.01415 5.5498 20.3478
2.0602 5.27643 18.2526
1.99711 5.58069 21.8528
2.18338 5.36435 19.5367
1.89649 5.96026 19.1287
1.80891 5.50936 20.8731
2.12666 5.06287 19.1982
1.99173 5.51279 19.6323
2.12077 5.8217 20.8626
2.07918 5.99097 19.8615
1.96438 5.80423 22.4662
2.33267 5.83781 20.3311
2.03151 5.62181 19.4326
1.92682 6.17884 23.6689
2.30771 6.14573 23.1033
2.46777 5.85121 20.861
2.11787 5.31352 21.3789
2.14147 5.45572 19.2924
1.97028 5.76609 20.9813
2.18646 6.578 21.2419
2.04439 6.20318 22.4827
2.10991 5.69004 19.9463
1.9341 5.27817 19.7244
1.90391 5.35684 19.4393
1.94564 5.63941 20.8008
2.07877 5.85538 20.7292
2.0263 5.23213 20.574
2.10822 5.49058 20.7579
1.97783 5.82782 19.5853
1.92562 5.45394 20.2824
1.83303 5.32402 20.5464
1.9682 6.00137 19.5797
1.85242 5.26349 19.1621
1.93976 5.12977 19.6446
1.97944 5.53387 20.6588
1.93125 5.24673 19.6901
1.97188 5.46436 20.3243
1.81624 5.05219 19.1893
1.82312 4.98905 18.9285
1.78487 5.2291 19.1238
1.85196 5.46484 20.6565
1.95637 5.57862 19.4249
1.79809 5.89594 22.8601
2.07105 5.89184 19.7796
1.89011 5.21912 20.1166
1.87018 5.89052 21.5187
2.02599 5.72166 19.5692
1.8397 5.28606 20.0776
1.9272 5.58728 20.9335
1.87441 5.0476 18.7611
1.82133 5.67647 20.79
1.84852 5.31622 20.0039
1.85821 5.48685 20.6583
1.88333 5.51019 21.0395
1.92015 5.43902 21.159
1.88775 5.78862 19.906
1.80716 5.26565 19.4052
1.84415 5.23181 19.4739
1.897 5.41472 20.0801
1.74267 5.28511 21.1268
1.88426 5.2523 19.3633
1.80496 5.63032 19.6922
1.70066 5.0287 19.149
1.73161 5.09133 19.9554
1.89388 5.56826 21.6403
1.79908 5.05286 19.4062
1.85724 5.32313 18.2503
1.71162 5.29961 20.808
1.8711 5.37616 18.6589
1.80154 5.20203 20.789
1.90787 5.87947 19.8895
1.78607 5.27084 22.2729
2.00321 5.86015 21.716
1.91263 5.25235 20.2173
1.91503 5.63302 19.9708
1.78656 5.51445 19.9642
1.86614 5.21171 19.3987
1.73057 5.24713 21.1456
1.90812 5.68488 20.7006
1.87493 5.42881 20.8817
1.92144 5.56786 21.4797
1.91933 5.76131 22.1736
1.95639 5.65415 20.6273
1.9062 5.59118 20.3469
1.72826 4.79243 19.564
1.74894 5.12906 21.4915
1.9375 5.91878 20.3819
1.82903 5.32844 21.4533
2.00234 5.69841 20.2411
1.78417 5.27303 20.3486
1.83122 5.24465 18.684
1.722 5.38301 20.9531
1.83032 5.40443 19.959
1.78998 5.23021 19.3512
1.72569 4.82046 19.7613
1.8095 5.75476 21.7805
1.94843 5.47588 19.1612
1.72853 5.49921 21.1002
1.93382 5.40629 19.6422
1.72053 5.33709 21.2309
1.80904 5.06331 21.1469
1.92778 5.93125 21.4896
1.87603 5.38446 21.1136
1.91605 5.74503 19.4245
1.70523 5.45359 22.6513
1.94282 5.09227 19.5832
1.80739 5.51491 20.0481
1.67228 5.03942 19.8513
1.85998 5.6309 20.0729
1.65057 5.11013 20.6226
1.83314 5.07798 21.1335
1.88971 5.37525 20.0131
1.76384 5.65369 20.6347
1.78869 4.98165 19.3711
1.74407 4.98638 19.3798
1.70901 5.11445 19.5745
1.77666 5.27876 19.2564
1.70967 5.35378 21.6479
1.88533 5.41517 20.5938
1.69561 5.47697 21.8746
1.91061 6.04379 22.8529
1.86652 5.46075 21.2033
1.68214 5.02709 19.5181
1.80072 5.70491 25.0587
2.21271 7.16162 22.529
1.86162 5.25075 19.8808
1.77261 5.47133 20.8306
1.81523 5.08171 23.4459
2.00165 5.47884 20.7153
1.83485 5.59664 20.5726
1.76984 4.96127 19.0733
1.7427 5.30895 20.5099
1.78094 5.17865 20.1149
1.75529 5.31369 21.2722
1.77577 5.50607 20.3065
1.74371 5.78183 20.7713
1.94677 5.18431 21.0601
1.79484 5.11714 21.5005
1.93615 5.29965 19.2622
1.75849 5.57152 20.232
1.87173 5.03977 20.5302
1.79118 5.20507 20.0663
1.76014 5.66899 23.7067
2.08857 6.03159 21.0694
1.76359 5.25921 20.1037
1.74031 5.33819 22.3993
1.98855 5.63845 22.3677
1.91626 5.51692 19.4425
1.63433 5.45321 22.1063
1.78532 5.21514 20.2252
1.87932 5.67435 21.1928
1.8305 5.00454 18.843
1.62032 5.16581 20.6986
1.93696 5.54241 20.5983
1.73317 5.54342 21.4876
1.88786 5.37862 21.1942
1.78369 5.17545 20.2957
1.90574 5.72696 21.4718
1.71551 5.62752 23.9708
2.0067 5.11598 21.3156
1.88312 5.35752 19.7371
1.6504 5.41325 23.7309
1.99761 6.25851 22.0584
1.86903 5.17478 20.7221
1.70697 5.27875 20.5537
1.67938 5.27951 20.601
1.78561 5.48476 20.1203
1.697 5.24042 22.0537
1.98448 5.8588 22.5893
1.85602 5.46738 21.565
1.70884 5.52142 21.9412
1.88067 5.3452 21.282
1.87343 5.65699 21.7561
1.88451 5.52659 21.2172
1.83012 5.48102 21.7103
1.85745 4.94574 20.1094
1.82222 5.73549 22.5556
1.87084 5.55094 22.2136
1.85767 5.74183 21.2173
1.67275 5.27005 21.4835
1.81471 5.56129 21.0471
1.75563 5.82692 20.4444
1.65632 5.07371 21.6415
1.74437 5.31947 21.511
1.7474 5.68353 21.1838
1.82486 5.10418 21.0665
1.73918 5.65749 21.3798
1.76756 5.38516 21.4924
1.76733 5.62301 20.7713
1.79099 5.75604 22.449
1.91813 5.82041 23.2572
1.78584 5.26094 21.2968
1.74835 5.32094 21.6633
1.83789 5.46884 21.1774
1.74503 5.3284 22.0863
1.75502 5.69496 21.165
1.78997 5.36431 20.6414
1.74703 5.51188 22.5115
1.79401 5.12621 20.6993
1.62342 5.36019 19.9883
1.70197 4.7031 19.8111
1.71001 5.07702 22.0363
1.83054 5.52657 21.3725
1.77398 5.16943 21.6692
1.77491 5.76724 21.8458
1.75409 5.09627 20.1659
1.69295 5.89923 22.3393
1.87105 5.40373 20.2646
1.65178 5.38072 21.1889
1.69258 5.0816 21.0295
1.76278 5.54303 21.9391
1.74331 5.03631 19.5585
1.68347 5.22381 20.8043
1.75053 5.17333 21.7998
1.79503 5.36846 22.1439
1.81061 5.23784 19.59
1.67998 5.1399 20.0174
1.74551 5.61965 22.705
1.90017 5.63409 21.733
1.79865 4.97086 18.561
1.54586 5.11764 20.8072
1.73865 5.03332 21.5862
1.85737 5.5812 20.9288
1.76162 5.6682 22.7849
1.80613 5.73821 21.2722
1.64216 5.32558 22.3063
1.71604 5.49574 22.6177
1.8251 5.6259 21.8139
1.6745 5.52309 21.3787
1.73747 5.00014 21.2272
1.72355 5.14026 21.3248
1.63623 5.63857 22.0724
1.76568 5.67075 22.7962
1.83051 5.55569 19.6872
1.65747 5.17464 21.1272
1.70987 5.50559 21.1832
1.68282 5.32578 22.2755
1.82049 5.51898 20.2844
1.65216 4.82493 18.948
1.58555 5.28835 22.2281
1.81177 5.24455 19.9986
1.64209 5.63668 21.7931
1.74442 4.99533 20.8142
1.58876 5.46779 22.0652
1.7632 5.83414 23.7559
1.84268 5.38486 20.7774
1.74361 5.59218 20.7356
1.72694 4.95944 22.0602
1.80722 5.46217 20.7517
1.67076 5.33576 21.3188
1.73321 5.5679 20.5051
1.61225 5.81366 24.3418
1.9112 5.45631 22.9041
1.8067 5.74077 22.3698
1.82335 5.45502 22.4422
1.87834 5.62181 22.0699
1.86115 4.93739 19.7238
1.65425 5.78409 21.4188
1.67535 5.07162 21.7481
1.70035 5.26204 20.5998
1.72249 5.40954 23.0359
1.79122 6.01675 23.4508
1.7405 5.91948 23.1663
1.83167 5.58228 21.2225
1.69243 4.91421 20.977
1.69277 5.26187 22.5538
1.73338 5.28374 20.2399
1.66391 5.57012 21.56
1.73994 5.36591 20.3607
1.71518 5.37199 21.6632
1.78379 5.46034 21.1419
1.64742 5.37758 23.1353
1.85752 5.67498 21.9025
1.78729 5.80654 21.5463
1.75743 5.25208 21.0969
1.58849 5.33512 22.1342
1.82237 5.50704 23.1981
1.89115 5.5504 22.4753
1.91541 5.67561 22.8078
1.83335 5.73587 21.8356
1.69649 5.22789 21.2292
1.79729 5.62815 22.9555
1.9553 5.55452 20.8384
1.63833 5.56657 22.4497
1.81997 5.27929 22.46
1.85248 5.70272 23.707
1.94664 6.14806 22.8215
1.86334 5.36264 22.7246
1.86501 5.63046 20.5404
1.79765 5.5642 24.5601
1.98371 5.46388 20.9917
1.70802 5.62214 24.6995
1.85087 6.3295 24.151
2.02158 6.44861 21.6169
1.73156 5.03955 21.6966
1.90265 5.70599 22.7306
1.72023 5.15154 23.727
1.93858 5.71589 22.4306
1.94263 6.00707 25.3779
2.19139 6.08876 24.3244
2.03458 6.13287 21.9304
1.85526 0 0