# pn-170911/RbIIA-26-RbIIF-1280-1959.psd
# Power spectrum* (dif=0,1,2) (really just |FT|^2)
# NOTE: only the first half! (symmetric)
# weeks: 1280-1959
# 1237 clock-days, 361 excluded
# PSD: 1441
2493.21 0.258747 0.00650596
123693 1.93202 0.00466873
573110 14.0239 0.00486531
95979.8 3.36852 0.00463199
170243 13.888 0.00624345
35781.9 3.30228 0.00523592
30203.6 5.19531 0.00510929
17503.4 3.24295 0.00530984
15512 4.26391 0.00557144
11412.7 3.27424 0.00642183
8826.06 3.37643 0.00630042
7113.05 3.31532 0.00652391
6318.96 3.60858 0.00723855
5220.82 3.37332 0.00783924
4378.41 3.2392 0.00720453
3686.37 3.00643 0.00760327
3256.01 3.21548 0.00781466
3005.96 3.24444 0.00870565
2806.49 3.445 0.00975298
2460.39 3.34849 0.00990229
2158.49 3.39882 0.0113483
1948.84 3.25283 0.0111568
1690.77 3.02054 0.0118614
1627.27 3.17076 0.0128649
1451.39 2.98314 0.0127756
1417.53 3.26302 0.0144421
1317.17 3.33172 0.0148822
1119.7 3.01827 0.014812
1031.16 3.06415 0.0157191
1006.92 3.09614 0.0180613
933.34 3.13663 0.018082
874.024 3.07514 0.0180632
846.94 3.0652 0.0196851
786.766 3.13968 0.0213511
719.427 3.05198 0.0205488
671.715 3.0831 0.0223842
634.324 3.01833 0.0231508
633.292 3.08067 0.0252498
606.836 3.07051 0.0263286
541.159 3.10215 0.0269006
529.972 3.15739 0.0286766
446.938 2.82569 0.0272266
481.467 3.07641 0.030049
441.207 3.14967 0.0319462
408.63 2.85429 0.0302936
403.008 3.07222 0.0343578
418.972 3.2835 0.037793
374.064 3.04898 0.0369169
349.297 2.9028 0.0357906
337.1 2.90488 0.0379234
336.407 3.02393 0.0406881
310.424 2.80699 0.03981
307.585 3.09207 0.0444002
319.175 3.14127 0.0461023
278.825 2.90789 0.0449343
282.417 3.00932 0.0483497
260.481 2.87574 0.046405
265.053 3.11851 0.0530288
235.725 2.88171 0.0483494
246.997 3.08083 0.0551866
253.942 3.16737 0.0596274
230.647 3.04713 0.0596464
230.566 3.15869 0.062104
204.579 3.00898 0.0618671
206.361 3.16916 0.0654935
184.958 3.05837 0.0682881
199.038 3.15277 0.0706461
185.623 3.11978 0.0706518
184.415 3.0661 0.0718459
163.403 2.85533 0.0690394
161.707 2.89429 0.0714366
164.147 3.03684 0.0771779
171.055 3.07489 0.0810833
153.909 2.94259 0.0767304
154.18 3.06295 0.0833904
158.243 3.07668 0.0855846
146.873 3.06316 0.0889019
142.334 3.0957 0.0910115
161.652 3.18417 0.0994341
129.697 3.01527 0.0953562
145.34 3.37245 0.107057
122.187 3.0417 0.0976441
120.122 3.01565 0.0996402
128.871 3.22564 0.107745
117.862 3.05844 0.109278
115.848 2.99617 0.104063
116.74 3.2363 0.116792
108.918 3.11523 0.115763
110.728 3.20796 0.119698
106.139 3.1338 0.12161
101.742 3.06609 0.119953
102.312 3.04897 0.122128
102.91 2.94 0.12379
101.418 3.25972 0.138283
95.8402 3.12333 0.134106
94.7503 3.18489 0.140616
92.6508 3.02965 0.138698
89.9574 2.99357 0.137589
93.8286 3.29246 0.152868
87.1069 2.86 0.136594
89.8474 3.18091 0.15514
84.4229 3.1261 0.152509
85.6666 3.08201 0.154877
88.2474 3.15484 0.161111
92.6507 3.34274 0.174336
74.3608 2.92434 0.150946
77.9677 3.06787 0.16516
69.2978 2.97891 0.164583
73.3475 3.06529 0.173553
69.0601 3.04964 0.176318
66.8671 2.97396 0.172855
69.7746 3.2151 0.193984
64.1447 2.85505 0.173181
65.2176 3.13981 0.19323
63.5111 2.99157 0.190337
63.0021 3.01962 0.19688
63.8775 3.12151 0.202864
63.3098 3.14408 0.206685
60.1038 3.11189 0.207208
55.6964 2.96352 0.204055
57.7737 3.0202 0.212357
56.667 3.05018 0.215306
54.9664 3.04517 0.217387
56.9483 2.95935 0.217052
52.9638 2.94595 0.217152
56.5515 3.07607 0.235494
50.8443 2.95668 0.22545
53.263 3.11287 0.243044
50.7835 2.96242 0.233646
51.9438 3.11171 0.251887
51.5201 3.16654 0.255984
51.5949 3.07484 0.257073
50.1715 3.02833 0.2567
51.0225 3.07281 0.25847
47.2777 3.31114 0.283008
49.1696 3.01156 0.264874
45.7202 3.08151 0.271888
49.098 3.05516 0.276776
44.0607 2.98938 0.276899
43.5213 3.16386 0.293638
41.932 3.0358 0.284476
45.71 3.22835 0.300801
45.2403 3.24897 0.312607
39.0163 2.88275 0.282844
40.146 3.02409 0.301547
41.6364 3.00542 0.306782
38.4074 2.90559 0.297251
39.7785 3.00616 0.309777
42.0249 3.29779 0.348723
38.0499 2.83847 0.298523
40.6468 3.17449 0.341355
39.401 3.07748 0.333473
40.3633 3.25324 0.362389
40.2675 3.27446 0.363733
36.36 3.00758 0.335331
40.2162 3.38313 0.386914
36.1811 3.10587 0.361107
33.5193 3.02071 0.355646
35.3823 3.1318 0.370733
33.8096 2.9549 0.357595
34.7896 3.04446 0.367029
32.2453 2.97126 0.364168
31.0454 3.08967 0.385115
31.7458 3.08854 0.389184
32.1797 3.11843 0.401073
33.0732 3.05989 0.401407
32.5939 3.0933 0.40333
29.7216 2.92368 0.390961
31.8411 3.28246 0.436242
30.2278 3.11737 0.423637
30.3392 3.13234 0.426428
30.3733 3.24478 0.45087
28.735 3.00261 0.42403
28.5145 2.94013 0.414339
28.8443 3.24406 0.46491
28.9718 3.2784 0.485845
28.0271 3.13061 0.463186
28.5186 3.26175 0.482484
27.1029 3.1958 0.48233
30.2246 3.37057 0.510508
26.9971 3.31049 0.508108
29.0796 3.02585 0.472788
25.8428 2.95444 0.469813
29.4913 3.22745 0.498274
26.3036 3.08398 0.501243
28.9582 3.16012 0.502606
24.3233 3.0426 0.492972
30.6045 3.40131 0.564482
25.1124 3.04646 0.501357
28.249 3.28713 0.549006
24.2494 3.13505 0.537348
27.1748 3.02884 0.517447
23.1808 2.88165 0.497031
24.4516 2.94147 0.515037
24.1491 3.18542 0.56961
24.7616 3.19228 0.570804
22.9553 3.20602 0.579365
22.0291 2.8336 0.513861
23.4704 3.30606 0.605729
21.2209 3.05107 0.583659
20.7866 3.08652 0.589623
21.2308 2.92086 0.562394
20.3917 3.04831 0.590591
20.8204 3.01245 0.58691
21.3868 3.3341 0.659901
20.2621 3.06138 0.603989
20.7328 3.14303 0.625428
20.7974 3.19686 0.64943
19.7372 3.11047 0.63051
20.0437 3.26027 0.669842
19.2164 3.03597 0.630277
20.3411 3.15813 0.657817
20.2971 3.35932 0.719301
18.1665 3.01251 0.637801
18.396 2.97601 0.642501
17.2369 2.94398 0.638908
18.3328 3.04684 0.670611
18.3254 3.17947 0.703242
17.2503 3.06199 0.693793
18.3905 3.04302 0.686192
17.638 3.13916 0.713492
18.3054 3.06709 0.701979
17.601 3.10202 0.718713
17.0161 3.11747 0.7196
16.8418 3.0785 0.72567
17.8525 3.24884 0.763241
17.308 3.14614 0.740011
16.9638 3.25335 0.787518
16.4843 2.97101 0.724696
16.8277 3.12981 0.771745
16.6299 3.1921 0.793694
16.421 3.185 0.789401
15.9145 2.9992 0.747689
16.0828 3.19164 0.822268
15.7484 3.17951 0.812176
16.078 3.29604 0.85656
15.2564 3.02263 0.781886
15.9021 3.04098 0.796886
14.7304 3.11994 0.844034
15.2426 3.06892 0.810986
15.4843 3.22205 0.858427
14.987 3.32816 0.921123
15.6122 3.14959 0.856935
15.2383 3.31373 0.921631
14.3543 3.03886 0.853632
14.5232 3.07261 0.852903
14.2473 3.10363 0.887063
14.5021 3.30473 0.954413
14.8861 3.39829 0.963479
14.7093 3.24273 0.947897
13.6326 3.03452 0.886136
14.2938 3.05427 0.890582
13.9088 3.28495 0.956788
14.6509 3.28263 0.983178
14.9861 3.41132 1.02246
13.6103 3.03188 0.928143
13.0164 2.9923 0.920562
13.3977 3.13275 0.965762
13.0152 3.05231 0.942508
13.0706 3.34362 1.05483
12.5061 3.17331 1.01406
13.1354 3.23671 0.991562
13.4045 3.35534 1.08246
12.7205 3.09947 0.993402
12.5665 3.15889 1.033
13.3122 3.35079 1.09807
12.4536 3.08014 0.99675
12.4807 3.17033 1.05844
12.7196 3.2955 1.09616
12.0658 3.19063 1.07693
11.5636 3.00177 1.02053
12.1442 3.18671 1.08231
12.006 3.24457 1.10825
11.5389 3.08662 1.06636
11.7935 3.1791 1.1222
12.0873 3.2567 1.13793
11.6399 3.18687 1.13139
12.072 3.22873 1.14782
12.2682 3.35807 1.1713
11.3661 3.1471 1.11243
11.8029 3.35968 1.20739
11.3302 3.17012 1.13575
12.1275 3.31703 1.18182
11.3111 3.22788 1.19384
11.9318 3.27585 1.17476
11.7266 3.36492 1.26571
12.7067 3.50544 1.28725
11.7934 3.29121 1.25333
13.0089 3.47829 1.27545
11.0215 3.33361 1.30051
12.5343 3.33949 1.26331
10.978 3.28307 1.28271
11.6928 3.26553 1.27882
10.8638 3.18657 1.2472
11.5899 3.15868 1.25485
10.3965 3.16628 1.27017
10.9479 3.42644 1.37422
10.3856 3.3253 1.34812
10.3264 3.2486 1.33275
9.62407 3.09425 1.27547
10.1906 3.14762 1.31355
10.788 3.3181 1.40242
9.76586 3.19732 1.33962
10.8144 3.47259 1.46969
9.91836 3.21375 1.37478
9.46975 3.26779 1.41969
10.0697 3.19008 1.36123
9.88125 3.19694 1.36874
9.78998 3.24426 1.41791
10.213 3.29368 1.44087
9.33146 3.06946 1.34894
9.32304 3.20347 1.43332
9.97063 3.33972 1.46332
9.20667 3.166 1.44107
9.81149 3.27835 1.49357
9.31108 3.37736 1.51836
9.3835 3.33562 1.52244
9.03837 3.29493 1.54598
8.8302 3.11939 1.45623
8.89702 3.20138 1.47507
9.36287 3.35637 1.57852
9.11128 3.17766 1.51198
8.91863 3.27358 1.54969
8.88157 3.15444 1.48192
8.72785 3.32637 1.59751
9.00722 3.27349 1.5755
8.57236 3.27458 1.62185
8.75593 3.35299 1.64138
8.1329 3.14101 1.5465
8.51236 3.30524 1.62204
8.37387 3.26994 1.62852
8.84628 3.3223 1.66843
8.30112 3.25624 1.64636
8.38866 3.24095 1.63009
8.38568 3.25744 1.6722
7.52856 2.98918 1.55683
8.81125 3.49593 1.77605
8.47542 3.26929 1.6512
7.74111 3.10662 1.60859
8.43887 3.38702 1.79878
7.87831 3.27593 1.71741
8.38568 3.28633 1.77808
7.59832 3.21994 1.70407
7.88588 3.26618 1.75173
7.53788 3.22733 1.73422
7.64447 3.20237 1.73407
8.2231 3.33629 1.8153
7.90787 3.27819 1.79813
7.88865 3.25937 1.76268
7.4871 3.10048 1.73872
7.31315 3.00708 1.67572
7.52799 3.34956 1.92326
7.9435 3.44091 1.92299
7.29862 3.17541 1.80964
7.29615 3.18188 1.85067
7.53414 3.33667 1.8865
7.44431 3.33361 1.89092
7.78394 3.38007 1.93128
7.37151 3.4341 2.00886
7.33718 3.29248 1.96423
7.0541 3.19464 1.90368
7.69656 3.40766 1.96688
7.22552 3.26609 1.93335
7.51345 3.35391 2.01224
7.6729 3.45839 2.04154
7.61933 3.49142 2.11502
7.70381 3.51786 2.08661
7.17499 3.33503 2.05417
6.75968 3.17519 1.93155
6.40593 2.92806 1.82655
6.65597 3.12737 1.92852
6.93174 3.5407 2.27062
7.14361 3.35082 2.06875
6.59626 3.31435 2.05501
6.57222 3.28518 2.08994
6.72493 3.35459 2.14429
6.66728 3.24948 2.07626
7.21272 3.39063 2.13014
6.6505 3.27596 2.14639
6.44244 3.192 2.08354
6.89506 3.27059 2.10943
6.57437 3.4543 2.24968
6.43791 3.21817 2.08879
6.53618 3.48962 2.30514
6.50285 3.54681 2.34036
6.51165 3.17149 2.0893
6.64564 3.54477 2.39102
6.61744 3.32643 2.27443
6.29609 3.23714 2.19065
7.20158 3.66638 2.43019
6.59964 3.53338 2.45131
6.61452 3.35102 2.27968
6.81613 3.50768 2.41794
6.96139 3.44844 2.41679
6.71776 3.35018 2.32922
6.38089 3.21052 2.19746
6.46423 3.20117 2.22731
6.18596 3.23269 2.2458
5.82091 3.19849 2.29011
5.7939 3.24775 2.33554
6.05761 3.40552 2.44327
6.06757 3.22263 2.37428
6.16899 3.56743 2.55202
5.84426 3.40825 2.40239
6.04926 3.33089 2.46632
5.91484 3.42297 2.45497
5.87416 3.39 2.51308
6.29808 3.56179 2.64545
5.64883 3.22656 2.34218
5.62176 3.30509 2.45002
5.89886 3.47255 2.57528
5.74415 3.33154 2.54622
5.49366 3.18731 2.44587
5.73024 3.162 2.39499
5.66395 3.4049 2.59597
5.98524 3.51734 2.66123
5.90208 3.39387 2.59256
5.87411 3.37144 2.61084
5.62302 3.34232 2.60544
5.50316 3.18241 2.53283
5.51071 3.38344 2.63332
5.70887 3.39243 2.62795
5.52784 3.48305 2.74079
5.54427 3.38209 2.74392
5.28506 3.32297 2.65054
5.96659 3.44233 2.83164
5.66926 3.36761 2.65889
5.37297 3.32147 2.70188
5.41211 3.41111 2.76531
5.15146 3.40422 2.76388
5.02747 3.24508 2.7101
5.43808 3.50584 2.8408
5.36634 3.38442 2.76979
5.2052 3.36011 2.80873
5.57677 3.51537 2.88503
4.7095 3.16093 2.67488
5.15981 3.38661 2.81562
5.2859 3.32629 2.79818
5.1037 3.30121 2.7797
5.73037 3.41156 2.88566
5.03003 3.33569 2.78249
5.26266 3.40624 2.91772
5.27041 3.57334 3.07735
5.17038 3.46181 2.99296
4.85103 3.27615 2.85212
5.11599 3.47168 2.93771
4.96796 3.37175 2.88821
4.91414 3.49626 3.13488
5.35558 3.7719 3.30655
4.64666 3.04553 2.77108
5.18567 3.48241 3.12692
4.79852 3.52594 3.1163
5.38931 3.76444 3.35671
4.81252 3.22744 2.95013
5.00885 3.39407 3.07869
4.9362 3.54982 3.25684
4.93677 3.34369 3.08904
5.09765 3.49745 3.13846
4.69517 3.28743 3.04746
5.11894 3.53843 3.27187
4.96775 3.40653 3.18695
4.80844 3.57632 3.2839
4.74627 3.48327 3.23311
4.60355 3.49278 3.32636
4.55945 3.46508 3.23568
4.76906 3.57621 3.38028
4.69396 3.40337 3.2457
4.77087 3.63467 3.43067
4.67057 3.43058 3.31806
4.72629 3.53938 3.43676
5.02418 3.50855 3.35551
4.67656 3.66213 3.58629
5.03583 3.58624 3.46894
4.69296 3.34633 3.16199
4.63644 3.41674 3.33793
4.79288 3.57877 3.51809
4.34083 3.37442 3.40266
5.03496 3.72723 3.66824
4.53548 3.46766 3.3961
4.71598 3.39126 3.38996
4.30728 3.46391 3.485
4.54649 3.61755 3.59922
4.35515 3.48241 3.46099
4.12769 3.35747 3.43373
4.31147 3.40655 3.48262
4.4816 3.53922 3.57339
4.49505 3.44546 3.55607
4.55851 3.95121 3.99754
4.17458 3.42939 3.53426
4.55878 3.6217 3.70603
4.05032 3.49367 3.71353
4.13305 3.56668 3.68841
4.39337 3.64681 3.79118
4.05753 3.46344 3.70594
4.21868 3.64954 3.80691
4.25669 3.51031 3.78806
4.34013 3.72844 3.93703
4.10331 3.29561 3.53354
4.46115 3.75383 3.92089
4.10297 3.42444 3.77523
4.16518 3.50507 3.72426
4.16372 3.4551 3.67854
3.97706 3.38398 3.71797
4.0647 3.35543 3.69095
3.97149 3.34004 3.67861
4.16511 3.41077 3.74729
4.05889 3.47339 3.70962
4.21124 3.33041 3.75401
4.10132 3.56215 3.87094
3.93494 3.48867 3.98525
4.09373 3.62504 3.91842
4.00417 3.48743 3.98734
3.91565 3.48024 3.90638
4.17233 3.69422 4.2303
4.15266 3.71575 4.14675
3.66549 3.32059 3.84839
3.84605 3.51983 3.98012
3.71117 3.29878 3.82384
3.8197 3.51178 4.01057
3.85178 3.71747 4.28476
4.16723 3.90101 4.41231
3.98191 3.36247 3.82515
3.83923 3.54356 4.11287
3.91383 3.6138 4.25602
3.59384 3.28616 3.96756
4.08588 3.55495 4.08071
3.72738 3.64421 4.38706
3.9219 3.48565 4.21741
3.86834 3.53584 4.24722
4.0702 3.6671 4.2501
3.87595 3.51916 4.2127
3.83846 3.61178 4.21434
4.18189 3.77258 4.49753
3.61113 3.38805 4.19274
3.97054 3.58554 4.4659
3.6615 3.59887 4.28377
3.66874 3.58369 4.3903
3.49586 3.44714 4.25159
3.70519 3.44393 4.41644
3.74938 3.80955 4.64439
3.74679 3.48225 4.26249
3.40459 3.51061 4.31048
3.67004 3.6059 4.55281
3.76955 3.69358 4.43442
3.66789 3.66002 4.62028
3.48215 3.45743 4.51099
3.47085 3.46888 4.35626
3.56361 3.51879 4.44843
3.45284 3.5633 4.44096
3.56383 3.50922 4.39932
3.39787 3.40439 4.28278
3.4657 3.51941 4.57885
3.57381 3.60024 4.66157
3.65091 3.6317 4.56151
3.3201 3.43944 4.69388
3.57305 3.77709 4.73838
3.3769 3.43058 4.45153
3.523 3.59568 4.647
3.48124 3.66033 4.75699
3.40559 3.70523 4.82333
3.38436 3.51863 4.6028
3.62523 3.81836 5.18992
3.43792 3.603 4.91335
3.75943 3.85886 4.96743
3.58752 3.62733 4.7985
3.50788 3.64367 4.78182
3.55654 3.54485 4.8408
3.52346 3.62624 4.92604
3.77393 3.63012 4.9234
3.43147 3.66274 5.00639
4.00431 3.98896 5.37314
3.61429 3.95086 5.36383
4.22133 3.73609 5.04976
3.44128 3.82482 5.2683
4.45384 4.08653 5.71444
3.68102 4.00791 5.46926
4.24722 3.71569 5.31097
3.75696 4.18368 5.70572
3.95758 3.76088 5.3897
3.47252 3.71526 5.11194
3.74275 3.85618 5.16503
3.51263 3.86347 5.44415
3.59227 3.95922 5.48055
3.46301 3.94327 5.5826
3.50782 3.90351 5.42579
3.40053 3.84708 5.30719
2.9698 3.64495 5.40271
3.39742 3.77732 5.19076
3.12972 3.56618 5.2181
3.16681 3.59048 5.21116
3.46234 3.95795 5.61623
3.07145 3.58247 5.27507
3.24791 3.74685 5.44289
3.37451 3.94986 5.63549
3.12643 3.58611 5.34583
3.13803 3.81155 5.55783
3.14655 3.66649 5.41972
3.18528 3.80311 5.67102
3.10722 3.60695 5.27231
3.1372 3.62474 5.33357
3.01879 3.69225 5.45088
3.00195 3.57805 5.52389
3.18981 3.69109 5.48489
3.22724 3.90231 5.72972
3.09274 3.5309 5.28266
2.9995 3.81379 5.88023
3.30291 3.75107 5.73136
3.03568 3.64369 5.43977
3.1976 3.6056 5.4414
3.1355 3.7148 5.70279
3.24817 3.69275 5.59411
3.20499 3.66185 5.61367
3.10851 3.60097 5.41065
3.12391 3.77343 5.7624
2.83486 3.59653 5.67891
3.05711 3.72211 5.82679
3.10098 3.79009 5.83893
3.08567 3.69464 5.73704
3.06039 3.69081 5.66539
3.20312 3.86782 5.94385
2.93298 3.77444 5.93137
3.05177 3.75006 5.92878
2.96766 3.91328 6.29618
3.06504 3.87559 6.17775
2.96103 3.63235 5.69197
3.04801 3.93663 6.13774
2.92643 3.82113 6.20296
3.1484 4.06473 6.44695
3.16462 4.09743 6.59851
2.99971 3.87024 6.25005
3.07419 3.92273 6.10936
2.71828 3.63978 6.06905
2.91262 3.78894 6.04876
2.95969 3.77662 6.20354
2.8875 3.68418 6.04306
2.70889 3.47455 5.52859
2.82906 3.6692 6.18296
2.93725 3.63959 5.87668
2.79807 3.70037 6.28668
2.92839 3.88893 6.42243
3.04794 4.13499 6.89899
2.90934 3.76968 5.97981
2.82867 3.77985 6.23173
2.86269 3.87027 6.59232
2.86963 3.85301 6.31211
2.73823 3.66689 6.24141
2.88806 3.83213 6.31571
2.88377 3.74737 6.07224
2.65813 3.62356 6.21758
2.87027 3.85586 6.47427
2.59651 3.67858 6.15274
2.70973 3.60938 6.49456
2.73467 3.75064 6.35893
2.65586 3.48518 5.77882
2.75009 3.61151 6.07609
2.72252 3.83146 6.71363
2.76123 3.76923 6.49272
2.74074 3.65312 6.30989
2.54082 3.6102 6.28226
2.79488 3.59103 6.39379
2.7114 3.68272 6.25627
2.75228 3.72848 6.52233
2.70905 3.91541 6.79435
2.76891 3.68177 6.13448
2.42145 3.72538 6.71642
2.71684 3.59165 6.49868
2.67645 3.76025 6.67426
2.56563 3.73443 6.7445
2.66262 3.63909 6.34691
2.59392 3.86867 6.89594
2.59624 3.6863 6.5652
2.52597 3.67479 6.51332
2.60979 3.80765 6.79692
2.60178 3.63699 6.56402
2.69168 3.98872 6.95903
2.69829 3.90128 6.97508
2.69008 3.64239 6.61858
2.63887 3.9076 7.07715
2.68792 3.70318 6.85555
2.67292 3.83365 7.10051
2.88387 3.69657 6.74017
2.67501 3.819 6.97229
2.68847 3.75877 6.97085
2.81049 3.95298 6.99208
2.6277 3.76482 6.86689
2.55264 3.8003 7.03893
2.66561 3.80519 7.12316
2.62893 3.75271 7.00842
2.65599 3.75953 6.99634
2.64122 3.97468 7.18934
2.49873 3.75439 7.04167
2.57783 4.15051 7.79443
2.5697 3.98578 7.57302
2.63619 3.88226 7.21012
2.51904 3.87729 7.56126
2.46156 3.5902 7.03922
2.71104 3.96719 7.57378
2.63005 3.92199 7.28923
2.65579 3.81073 7.11638
2.46621 3.86984 7.77455
2.76125 4.06738 7.78951
2.54057 3.6725 7.02359
2.64176 3.87334 7.21854
2.26319 3.592 7.0808
2.62311 4.00997 7.48997
2.68038 4.05042 7.85422
2.41846 3.68088 7.10647
2.41726 3.76183 7.08819
2.43502 3.70659 7.21208
2.48939 3.71887 7.16921
2.4108 3.78669 7.33534
2.44617 3.74926 7.4369
2.34335 3.78431 7.60726
2.59488 4.0062 7.94285
2.49618 3.64315 7.10243
2.44692 4.05155 8.00051
2.40204 3.86884 7.61132
2.39439 3.83424 7.52754
2.37356 3.67818 7.23992
2.23062 3.70296 7.47942
2.3351 3.71186 7.58969
2.38758 3.76023 7.63315
2.45839 3.88813 7.67609
2.48681 4.08591 8.45442
2.46103 3.98946 7.88718
2.60329 3.8785 7.77804
2.38203 3.80459 7.77907
2.44684 3.78856 7.82999
2.42902 3.93996 7.85284
2.54022 4.0597 8.41429
2.31982 3.72435 7.62207
2.47446 3.83654 7.65517
2.26878 3.61414 7.49327
2.33601 3.75893 7.70822
2.38432 4.02239 8.35433
2.45624 3.99301 8.17313
2.38182 4.04269 8.48483
2.41887 3.94753 8.01415
2.34121 3.81602 7.93623
2.21679 3.79285 7.90687
2.27504 3.825 8.02282
2.33147 3.79802 7.93885
2.27403 3.94615 8.12946
2.31147 3.81445 8.08835
2.32823 3.94426 8.17896
2.36154 4.10945 8.34634
2.16322 3.81014 8.21282
2.26064 3.96427 8.69037
2.32112 4.03946 8.2187
2.21501 3.70051 7.74475
2.20043 3.80224 8.35192
2.16089 3.77836 8.23207
2.17479 3.85786 8.24289
2.30103 4.13528 8.73338
2.26144 3.68519 7.87862
2.17344 3.72514 8.31774
2.31179 4.15295 9.07161
2.3598 4.0836 8.59733
2.26193 3.84346 8.60007
2.48783 4.27792 9.19067
2.29826 3.84562 8.29523
2.12993 3.69113 8.2328
2.32601 4.05462 8.60868
2.28352 3.84447 8.45901
2.27588 3.79767 8.30709
2.18401 3.80049 8.5402
2.3403 4.03318 8.52587
2.19666 3.96467 8.92359
2.32503 4.03547 8.82019
2.1777 4.01913 8.65455
2.12395 3.96585 8.75316
2.19081 3.99071 9.16917
2.30003 4.13396 8.927
2.25817 3.99866 9.05128
2.36405 4.08996 8.75912
2.23493 3.87628 8.8574
2.16909 3.61907 8.31829
2.22745 3.81722 8.67607
2.2798 4.19452 8.89186
2.13409 3.98453 9.13409
2.24923 4.24731 9.96629
2.37311 3.95344 9.06842
2.25859 4.17136 9.7135
2.45659 4.48761 9.68035
2.24667 4.05742 9.18286
2.2974 3.88403 8.6677
2.12489 3.90328 9.48355
2.33434 4.14337 9.63144
2.26897 4.17521 9.27968
2.32194 4.10669 9.56852
2.24123 4.01762 9.30104
2.29301 4.28757 9.64321
2.19462 4.00806 9.43093
2.195 3.89838 8.65519
1.94075 3.67179 9.02314
2.19962 4.0038 9.22161
2.25641 4.20438 9.68602
2.08849 3.92199 8.8193
2.08769 4.2251 10.3432
2.25418 4.07411 9.6824
2.20891 4.18686 9.54189
2.13877 4.06872 9.38572
2.06074 3.6929 8.71878
2.00127 3.95137 9.36226
2.06174 3.88832 9.38111
2.0975 4.05666 9.44489
2.07267 3.82572 9.01998
2.0109 4.11345 9.72809
2.0151 4.14008 10.1997
2.18543 4.15216 9.8985
2.15305 4.21086 10.1006
2.10772 3.98515 9.49629
2.13535 4.09069 9.81717
2.11815 4.07212 9.67959
2.04015 3.95859 9.45272
2.12503 3.98272 9.5573
2.08614 4.06664 9.90671
2.13303 4.14113 9.8163
1.93658 3.95197 9.99744
2.26086 4.22837 10.1474
2.20943 4.08018 10.0217
2.22878 3.72547 8.9186
1.99826 3.84327 9.34488
2.13845 4.07632 10.0236
2.2159 4.34197 10.4629
2.09288 4.07999 10.1974
2.1548 4.24493 10.4161
2.09331 4.22646 10.3781
2.17652 4.13331 9.99972
2.0812 3.90086 9.69917
2.12299 4.18128 10.5037
2.0305 4.08682 10.2527
2.11748 4.40222 10.719
2.00656 3.87142 9.91265
2.19405 4.20358 10.4235
2.25087 4.46665 10.8278
2.04518 3.9968 9.84737
2.00128 4.27162 10.6489
1.99393 4.14569 10.253
1.97454 4.13803 10.9581
2.13338 4.15482 10.2596
2.05268 4.51829 11.5353
2.06773 4.07688 10.4999
2.07968 4.15409 10.2409
2.03588 4.215 10.779
2.07084 4.36888 10.9087
2.14034 4.30551 10.7582
2.08267 4.43599 11.0915
2.06075 4.38844 11.6023
2.12174 4.48281 11.008
1.99694 4.26762 11.2414
2.09779 4.24161 10.9528
2.09283 4.25265 10.8706
1.94349 4.11944 10.9922
2.27022 4.63705 11.6477
2.191 4.47765 11.6151
1.94589 4.22353 10.7795
2.04491 4.43564 11.6574
2.16373 4.41397 11.5782
2.19616 4.71656 11.6657
2.09031 4.37828 11.7002
2.08147 4.47766 11.8317
2.34194 5.19014 13.557
2.14662 4.46995 11.2198
1.9964 4.18888 11.3708
2.03818 4.788 13.118
2.2949 4.79861 12.2947
2.20782 4.65356 12.3552
2.11628 4.51095 11.8957
2.03969 4.39467 11.5415
2.05046 4.73436 12.1183
2.0033 4.31163 11.5792
2.05123 4.37549 11.3065
1.96281 4.30646 11.2952
2.04973 4.6622 12.1317
1.88302 4.18419 11.6367
1.92943 4.17726 11.0275
1.86701 4.42765 12.2406
2.0186 4.31234 11.4567
1.98288 4.4219 12.0528
1.97667 4.39342 12.1759
2.01898 4.15493 11.3591
1.97749 4.40373 11.446
1.91525 4.31902 11.973
2.03605 4.50719 11.706
1.91115 4.14043 10.843
1.80692 4.05663 11.4641
1.95729 4.23902 10.9468
1.83768 4.52985 11.8833
1.85758 4.20643 11.4788
1.83153 3.97457 11.6465
1.97305 4.41008 12.0345
2.0548 4.25588 11.233
1.94318 4.07687 11.7199
2.03639 4.49703 11.6909
1.8761 4.17122 11.8751
1.94462 3.96996 10.7531
1.87024 4.22733 11.7407
1.8693 4.34493 11.8862
1.87911 4.54502 12.3032
1.81149 4.17812 11.8661
1.87731 4.09086 11.5659
1.89367 4.21959 11.7083
1.97489 4.50424 12.4735
1.90005 4.2231 11.8558
1.86855 4.14237 11.4045
1.84849 4.05044 11.2073
1.93789 4.53734 12.29
1.78893 4.11875 11.8542
1.87046 4.43321 12.2195
1.80513 4.259 12.7291
1.99616 4.37369 11.4501
1.77589 4.07848 11.675
1.83045 4.28968 12.5045
1.96371 4.55143 12.6663
1.90077 4.35131 12.5462
1.79738 4.36933 16.1104
2.88198 6.59333 14.1337
1.7919 4.19022 12.166
1.82148 4.40666 12.734
1.88663 4.39792 12.2557
1.76655 4.21949 11.9998
1.77276 4.23596 12.5387
1.84187 4.3596 12.6954
1.8653 4.5615 12.8738
1.88291 4.52306 12.6595
1.89766 4.19311 12.0159
1.73447 4.18196 12.8293
1.86928 4.22685 11.8496
1.80885 4.21463 12.0012
1.7987 4.0549 11.9305
1.87067 4.29308 11.8292
1.79447 4.31881 12.5418
1.74789 4.11066 11.8749
1.82614 4.27509 12.3341
1.79783 4.5094 13.2903
1.87083 4.26183 12.7779
1.87923 4.52883 13.2942
1.94327 4.47359 12.1995
1.81112 4.38381 12.7372
1.83012 4.5166 13.2965
1.90237 4.70923 14.0504
1.85343 4.52682 13.1206
1.85271 4.29303 12.7477
1.86384 4.4666 12.4704
1.74111 4.24309 12.937
1.75361 4.37662 12.7063
1.80226 4.50159 12.9156
1.76732 4.31454 12.6773
1.72089 4.24906 12.6893
1.65438 3.93671 11.9331
1.71265 4.21297 12.1421
1.67594 4.06618 12.1558
1.74019 4.41767 13.9052
1.89869 4.41541 12.6762
1.81563 4.37302 13.21
1.73606 4.16851 12.7456
1.86973 4.52417 13.0075
1.73446 4.3062 12.9526
1.73581 4.28863 12.9045
1.75556 4.45144 13.0856
1.82793 4.30891 13.261
1.95582 4.62867 13.444
1.88902 4.59699 13.8149
1.83001 4.21841 13.0265
1.82647 4.60226 13.9271
1.88735 4.30409 12.9037
1.8378 4.42544 13.7963
1.92234 4.36489 12.5779
1.70695 3.98011 12.1631
1.83451 4.28864 12.9161
1.71223 4.21446 12.93
1.76867 4.25963 13.5933
1.77785 4.28593 12.655
1.79306 4.50281 14.1929
1.87226 4.63498 13.5013
1.80173 4.47388 13.6519
1.83847 4.38209 13.8421
1.86941 4.46684 13.5511
1.8012 4.58143 14.3929
1.83471 4.52292 13.0776
1.69785 4.22837 13.263
1.74405 4.54948 13.6518
1.70493 4.59358 14.3377
1.75451 4.60603 14.196
1.83198 4.49501 13.7832
1.74251 4.34527 13.7267
1.85198 4.29576 13.0443
1.67756 4.1944 13.2942
1.7198 4.48585 14.4222
1.82148 4.90986 15.7192
1.85421 4.30633 13.3146
1.7991 4.63985 14.282
1.85526 4.85193 15.162
1.81398 4.54176 13.9858
1.68839 3.93805 12.5023
1.73645 4.1449 12.5416
1.61728 4.55861 14.8998
1.82133 4.519 14.1946
1.72082 4.62186 14.1594
1.65079 4.28913 14.6697
1.83714 4.47569 13.2509
1.67608 4.45331 14.0357
1.67528 4.56466 14.5825
1.74159 4.45315 14.1754
1.79112 4.63848 14.7119
1.75029 4.50413 14.7004
1.82806 4.63831 13.8051
1.73849 4.55989 14.7118
1.74724 4.6538 14.0492
1.75082 4.41826 13.7326
1.69883 4.43906 14.5101
1.69357 4.3593 14.0771
1.72446 4.71279 15.2459
1.75539 4.41616 14.4888
1.76738 4.46302 13.6839
1.63812 4.29441 13.8976
1.69793 4.43012 13.9972
1.62362 4.1801 13.8984
1.69019 4.56455 14.1814
1.58689 4.15899 14.1814
1.68249 4.2197 13.5944
1.75942 4.69824 14.9936
1.70156 4.51502 14.3233
1.69691 4.52448 14.3953
1.59226 4.31896 14.3748
1.68299 4.38833 14.2607
1.64894 4.40419 14.3558
1.76342 4.47413 14.0713
1.61306 4.34781 14.2971
1.66492 4.42701 14.5429
1.67646 4.40103 14.6806
1.73223 4.64417 15.2109
1.70285 4.43501 14.2127
1.57762 4.46762 15.4248
1.73091 4.67794 15.3584
1.70566 4.64119 15.0754
1.75911 4.67261 15.6669
1.75228 4.58648 14.7183
1.75738 4.65477 14.9423
1.64165 4.48615 14.2623
1.59632 4.54249 15.9649
1.77419 4.77175 14.9766
1.64163 4.3668 14.6407
1.64424 4.56938 15.7036
1.80101 4.63925 14.994
1.78373 4.8592 16.1136
1.77404 4.77145 15.0476
1.68145 4.35021 13.9139
1.59712 4.59911 15.7512
1.73284 4.5991 14.6605
1.63508 4.49798 15.1381
1.64596 4.57739 16.0572
1.75836 4.88795 15.8988
1.70329 4.41061 15.019
1.72243 4.62703 14.7415
1.54748 4.28537 14.6815
1.58779 4.34934 14.3558
1.55098 4.68165 16.1705
1.70756 4.59478 15.5897
1.77638 4.59632 14.7954
1.61893 4.50617 16.0234
1.76232 4.61307 15.2491
1.67072 4.63484 15.3599
1.75825 4.56667 15.1839
1.6717 4.50155 14.6259
1.56229 4.54414 15.3704
1.67947 4.99161 17.1337
1.79486 4.55562 15.2551
1.70183 4.67788 15.5278
1.62039 4.87993 16.231
1.68718 4.82231 16.649
1.69142 4.66357 15.2621
1.67551 4.76665 15.4187
1.52743 4.22638 15.6518
1.66044 4.54579 15.5816
1.69473 4.5772 14.8829
1.68497 4.52682 15.5879
1.65369 4.69641 16.0252
1.68847 4.66427 16.3629
1.74072 5.03335 16.2444
1.68748 4.74181 16.4742
1.73024 4.60635 15.6998
1.64643 4.35044 15.0208
1.60538 4.58713 16.4514
1.72253 4.95244 16.8183
1.71729 4.46919 15.2425
1.65183 4.7109 16.2422
1.62935 4.31858 15.1981
1.65198 4.71857 15.7238
1.59237 4.53477 16.2956
1.70044 4.82815 15.7809
1.61137 4.52275 15.417
1.5321 4.51995 15.6766
1.61491 4.64899 15.9674
1.65803 4.5276 16.2102
1.73189 4.92572 16.2637
1.62134 4.43087 15.6247
1.64745 4.74248 16.5319
1.61834 4.6916 16.1254
1.64037 4.82568 16.6828
1.67509 4.74992 16.257
1.66395 4.74996 16.4143
1.6135 4.94567 18.0232
1.80086 4.52218 15.72
1.59166 4.58166 16.0153
1.68654 4.64108 15.7496
1.60049 4.50806 15.2634
1.54645 4.56928 17.0558
1.74003 4.7884 16.5851
1.65766 4.70183 16.0317
1.59245 4.86629 17.2317
1.60162 4.68105 16.285
1.61811 4.74157 16.8579
1.60691 4.39521 15.7379
1.65573 4.83422 17.3648
1.64512 4.67505 16.6781
1.76805 5.03075 18.429
1.70721 4.81133 16.8552
1.70029 4.77123 15.871
1.57717 4.57172 16.2116
1.67643 4.96726 16.9658
1.53847 4.46894 16.8862
1.78214 4.98133 17.4434
1.61965 4.8216 17.2136
1.62458 4.87881 17.4441
1.62606 4.91747 17.5323
1.68382 4.90675 16.9717
1.60368 4.71738 16.9522
1.60788 4.91192 17.7283
1.69434 4.70007 16.9749
1.68688 4.80161 16.7813
1.58757 4.62084 16.0201
1.52311 4.7315 17.5592
1.67011 5.08371 18.3006
1.73018 5.0269 17.962
1.68827 5.29344 19.1193
1.75381 5.08802 18.2219
1.67214 4.95472 17.1268
1.59377 4.92019 17.3387
1.62694 4.91045 17.8417
1.63216 4.60784 16.7765
1.55157 4.78807 17.9866
1.71797 5.33809 18.5308
1.68894 4.95533 17.9191
1.71601 4.79308 16.6238
1.68727 4.79899 17.4091
1.6798 5.12254 19.089
1.89968 5.11311 18.7775
1.73986 5.42689 20.4796
1.99371 5.98735 20.6119
1.75676 5.27542 18.4173
1.84487 5.29095 21.1624
1.91235 5.99664 19.83
1.92636 5.32828 20.5738
1.85774 5.37014 18.6346
1.84125 5.0089 18.2964
1.67154 5.165 18.6487
1.78958 5.02892 17.5005
1.61062 5.04548 17.9319
1.63301 5.02939 18.7353
1.61027 5.04782 17.9042
1.68908 5.02477 17.73
1.63874 4.60188 18.2191
1.71136 4.90043 17.7874
1.66207 5.04983 18.7687
1.67106 4.95998 17.343
1.55472 5.03453 18.5622
1.66015 5.08969 18.6728
1.69604 4.9302 18.3195
1.58689 4.70739 17.8513
1.60678 4.98624 17.6257
1.58028 5.0743 18.1933
1.53872 4.93924 17.8432
1.55744 4.73411 17.6502
1.56517 4.9422 17.6616
1.55803 4.91816 18.556
1.69124 4.81689 18.3478
1.59767 4.97486 16.9484
1.56605 4.85445 18.2869
1.63148 4.66528 17.7944
1.62224 4.99347 17.5332
1.53318 4.66595 18.0456
1.55957 5.05998 18.2
1.56882 4.90723 18.2034
1.59003 4.85201 18.1895
1.65428 5.13996 18.9905
1.68425 5.01663 18.3376
1.61809 5.13619 18.9552
1.62064 5.07345 17.6703
1.56164 5.02625 18.784
1.59217 4.92635 17.5325
1.49388 4.86358 18.5302
1.59125 4.9102 18.9326
1.5717 5.01494 19.3145
1.70572 5.21976 18.2643
1.54058 4.59462 17.4855
1.50949 4.81253 17.6557
1.50833 4.96285 19.9469
1.67095 4.75107 16.8679
1.4846 4.89575 18.4095
1.6228 4.84224 17.7017
1.53423 4.90187 18.3398
1.54982 4.91441 18.3876
1.59454 4.8677 18.4873
1.65154 4.84285 17.6351
1.51431 4.82754 18.097
1.65175 5.12449 19.1357
1.63339 4.82472 18.4848
1.60819 4.95756 17.5384
1.48558 4.7038 17.9823
1.54717 4.79961 18.1076
1.47023 4.64372 17.8497
1.50318 4.81771 19.7201
1.76019 5.26625 18.7628
1.58884 4.90589 17.6696
1.53946 4.92591 17.4347
1.45739 4.86267 19.1612
1.5722 5.28382 19.0394
1.53797 4.99983 18.7857
1.54794 4.82181 18.1864
1.54803 4.81553 19.0104
1.60732 4.72463 19.0397
1.63223 5.03269 18.7241
1.54674 5.09362 18.6098
1.5681 4.97825 18.4812
1.55108 4.94131 19.7154
1.62415 4.72046 17.7022
1.52736 4.71466 18.3813
1.58468 4.80207 18.3601
1.53435 4.76779 18.1511
1.49025 5.14359 18.5039
1.57052 4.99914 19.2142
1.58028 4.55798 17.8165
1.57651 5.10218 19.2835
1.5576 5.06552 19.3798
1.54043 5.06016 19.6313
1.595 4.71688 17.417
1.45688 5.06589 18.8264
1.50849 4.56275 18.4042
1.49791 4.94939 18.0921
1.4734 4.60808 17.749
1.48922 4.8555 18.557
1.5541 4.91354 17.7912
1.42869 4.49775 17.6488
1.49212 4.63234 18.4844
1.52154 4.98093 18.3092
1.50463 4.73409 18.6033
1.48799 5.04733 19.273
1.65947 5.01972 20.4308
1.62539 5.1409 18.1774
1.50519 4.88707 18.5187
1.47993 4.59167 18.2904
1.59537 5.11033 19.6902
1.58368 4.80709 18.4791
1.53584 4.8051 18.6076
1.52517 4.92678 19.457
1.57886 5.02114 18.4575
1.53413 4.80703 18.2214
1.50642 4.9264 19.3997
1.66979 4.86918 18.6073
1.49774 4.73379 17.4158
1.61293 5.05989 19.9781
1.56867 4.97995 18.568
1.49973 4.58267 16.9718
1.41228 5.01687 19.0003
1.51074 4.62943 18.874
1.55226 4.70919 18.171
1.50312 4.9617 18.8634
1.46238 4.63342 18.2366
1.52229 4.9178 17.901
1.49308 4.82061 18.7481
1.47462 4.89637 18.6045
1.52653 4.45593 16.8618
1.32622 4.6011 18.2145
1.47226 4.80761 17.9162
1.37094 4.43391 18.284
1.41081 4.87376 19.1436
1.51109 4.88274 17.3382
1.38842 4.69735 19.6741
1.62859 4.98063 19.3772
1.58025 4.90884 19.1908
1.56747 4.70068 18.1913
1.52223 4.76129 19.3739
1.54982 4.95975 18.6696
1.45706 4.90501 18.7137
1.46711 4.57211 18.2978
1.47292 5.10325 18.818
1.49873 4.70105 18.4152
1.48057 5.20994 19.71
1.5216 5.03845 19.7561
1.51926 4.79472 18.6027
1.47115 4.39732 18.1904
1.44208 4.87949 19.3062
1.55362 4.91525 18.9481
1.53059 4.92327 18.4585
1.5106 5.04816 20.3299
1.56168 5.0888 19.861
1.6212 5.05229 18.0033
1.43223 4.91987 18.9278
1.51162 4.841 19.0435
1.4428 4.53396 18.0804
1.51369 4.925 20.3021
1.63272 4.91004 17.6925
1.46152 4.67908 19.0247
1.50636 5.02946 19.3416
1.56758 4.86145 19.4674
1.56548 4.8391 19.087
1.52705 5.09679 19.2757
1.51374 4.58777 19.2403
1.56648 4.92851 19.3216
1.50685 5.12693 20.1688
1.51387 5.18556 19.7974
1.50499 4.80542 18.3454
1.44553 5.22326 20.6435
1.57239 4.7839 19.654
1.56096 4.67579 18.4374
1.37129 4.86298 18.7479
1.42537 5.01415 19.5739
1.5002 4.97814 19.8804
1.55492 4.7595 18.5548
1.39877 4.89808 19.088
1.49156 4.78484 18.9574
1.46932 4.88146 19.5412
1.5516 4.72708 18.1707
1.44993 4.9674 20.4505
1.56957 5.27781 19.8398
1.51755 4.75974 18.6448
1.50349 4.78215 19.4355
1.53427 4.74052 19.8744
1.53394 4.63611 18.0355
1.40608 5.05903 19.1126
1.44832 4.91043 19.2693
1.46695 4.97573 19.4518
1.48576 4.76024 19.2751
1.52769 5.12757 19.4184
1.55426 5.20961 19.8089
1.48608 4.6562 18.3542
1.47202 4.62926 18.1299
1.37806 4.85647 18.3203
1.47388 4.75289 19.1168
1.46887 5.10661 19.2262
1.51199 4.90938 20.1995
1.53599 4.99251 19.5695
1.52784 4.81417 18.1697
1.43423 4.92717 20.7793
1.60689 5.0232 20.7101
1.54881 5.14528 18.7351
1.50723 4.57619 18.8138
1.44867 4.85638 19.9941
1.54862 5.00136 19.5727
1.55888 4.67937 18.4345
1.41362 5.09454 20.2051
1.62354 4.57665 18.42
1.40623 4.83523 18.2034
1.43229 4.5334 19.1237
1.48214 4.96671 20.1261
1.63488 4.87894 20.0083
1.52277 5.1685 19.9125
1.60661 4.85166 20.3244
1.64761 4.869 17.3244
1.4321 4.89349 20.1421
1.46008 4.99212 19.7555
1.56367 4.87676 19.7511
1.48884 4.80633 19.6265
1.63445 5.00369 19.2888
1.50197 4.96402 20.3088
1.56185 5.20199 19.9793
1.56783 4.83766 19.0125
1.44103 4.76976 18.3572
1.44719 5.10304 20.5589
1.51319 4.82872 19.4239
1.49587 4.92579 19.2503
1.43354 4.76646 19.1919
1.47284 5.14244 19.802
1.50013 4.92084 18.9054
1.44128 4.6431 18.8677
1.4014 4.83177 18.4768
1.38953 4.73543 19.5358
1.47742 4.8404 19.6395
1.47603 5.03586 19.9257
1.56766 4.78747 19.2012
1.45115 4.95912 18.9965
1.48141 4.63317 18.7001
1.44713 4.81074 19.8707
1.47283 5.17454 20.1392
1.49856 5.34661 20.7919
1.59369 5.09801 20.1351
1.45324 4.92607 19.734
1.46233 4.86403 19.9669
1.47877 5.00203 19.0239
1.42323 4.9671 20.2324
1.48754 4.9268 19.018
1.45335 4.8733 21.4366
1.60385 5.20532 19.3134
1.38718 4.40639 18.0419
1.42422 4.62147 18.4195
1.413 4.87677 22.4809
1.70121 5.46365 19.8849
1.46472 5.15189 21.9957
1.64285 5.14325 19.8068
1.54936 5.3016 20.0741
1.47032 5.22736 20.747
1.58509 4.80804 20.1083
1.52401 5.08624 19.9535
1.54633 4.84625 19.2615
1.47047 5.00526 19.5788
1.53785 4.90059 19.3693
1.44565 4.90436 19.7754
1.5314 4.91217 20.9496
1.53948 4.99892 20.0997
1.50187 5.14155 21.9473
1.67718 6.27555 21.6469
1.55202 4.88475 20.2998
1.53483 5.16356 20.4838
1.48913 5.09135 20.9947
1.5921 5.08159 21.3158
1.55541 5.5362 21.3737
1.5784 5.13444 19.5988
1.48493 5.01055 20.0984
1.56322 5.24367 20.8246
1.55854 4.84116 19.8035
1.54616 5.02146 20.2895
1.51826 5.16297 20.8856
1.47456 5.32263 19.9525
1.51762 5.05349 20.5358
1.54364 5.30407 21.497
1.57625 5.03617 20.7828
1.54651 5.23124 21.5563
1.63537 5.39372 20.9011
1.55905 5.22276 20.9749
1.55163 5.1285 20.4921
1.52339 5.33618 21.1061
1.57684 5.28723 21.8863
1.60733 5.31721 21.3101
1.56584 5.78102 23.5563
1.82008 5.60766 23.1079
1.69533 5.86391 24.0788
1.79336 6.30198 24.3165
1.70392 5.81748 21.6207
1.63503 0 0