# pn-170911/RbIIF-68-RbIIA-1280-1959.psd
# Power spectrum* (dif=0,1,2) (really just |FT|^2)
# NOTE: only the first half! (symmetric)
# weeks: 1280-1959
# 479 clock-days, 39 excluded
# PSD: 1441
2155.85 0.0691768 0.00837242
271321 2.55928 0.00455296
1.68582e+06 38.0438 0.0054045
137387 4.69452 0.00443951
133050 8.84384 0.00526053
50961.9 4.64573 0.00506883
36240.4 4.94835 0.00510249
25813.4 4.58213 0.00579139
19505.2 4.56123 0.00601113
15409.7 4.39712 0.00632678
12660.5 4.48209 0.00647772
9999.02 4.28384 0.00632357
9226.37 4.76695 0.00743171
6964.87 4.36235 0.00797845
5980.83 4.28402 0.00811704
5595.84 4.51701 0.00928647
5163.72 4.69101 0.0107002
4105.21 4.26831 0.0102625
3854.85 4.3652 0.0109698
3584.84 4.4583 0.0124029
3289.97 4.58194 0.0130495
2764.15 4.28033 0.0130996
2696.73 4.83646 0.0154899
2406.99 4.36908 0.0153649
2105.54 4.14498 0.0159139
2171.96 4.68287 0.0197395
1731.47 4.27617 0.0172765
1592.83 3.90436 0.0183705
1598.4 4.50628 0.0212837
1538.29 4.67195 0.0228313
1360.75 4.12428 0.0229257
1318.36 4.67718 0.0271046
1264.95 4.65758 0.0272204
1186.78 4.69827 0.0288124
1125.9 4.58727 0.0306843
1022.88 4.30695 0.0289701
1047.44 4.87725 0.0356027
975.095 4.82322 0.0370049
879.17 4.4356 0.0334598
907.952 4.74965 0.0382574
795.81 4.66986 0.0414989
721.981 4.3217 0.0388977
757.25 4.62902 0.0432667
693.307 4.33109 0.0431856
700.925 4.65957 0.0467019
665.751 4.62175 0.0479801
600.339 4.45065 0.0486679
569.326 4.25184 0.0481392
556.163 4.4262 0.053933
517.03 4.65237 0.0582511
496.485 4.31856 0.0553586
482.302 4.46745 0.0599518
472.24 4.53825 0.0628333
437.721 4.33102 0.0612378
475.786 4.75991 0.0711214
435.197 4.50638 0.06925
368.855 4.00695 0.0644343
415.277 4.76309 0.0794557
393.904 4.55661 0.080385
366.791 4.69153 0.0813784
389.268 4.69582 0.0835823
343.527 4.56521 0.0850905
351.816 4.65321 0.0890742
346.999 4.6265 0.0919902
318.423 4.63162 0.0969952
315.3 4.96576 0.106597
294.177 4.46079 0.0944408
273.763 4.28623 0.0946134
277.551 4.84532 0.110419
276.554 5.15645 0.11983
258.679 4.59391 0.110305
257.057 4.4337 0.108693
220.889 3.96823 0.104313
230.209 4.48549 0.119706
236.667 4.69431 0.125439
225.739 4.41133 0.122683
215.318 4.44638 0.126063
221.971 4.49926 0.130246
200.942 4.31262 0.128528
221.656 4.62972 0.144543
203.529 4.61159 0.144418
199.123 4.46245 0.144761
206.732 4.48272 0.147191
196.714 4.95279 0.169832
178.454 4.62914 0.156214
178.063 4.48149 0.157816
183.993 4.66731 0.166073
163.177 4.38336 0.163523
171.438 4.85203 0.182047
169.329 4.8716 0.188489
172.878 4.90205 0.190727
146.74 4.16945 0.169766
156.089 4.44544 0.184905
155.593 4.74034 0.196826
150.953 4.82317 0.206496
153.991 4.88878 0.212649
136.028 4.56445 0.204158
152.478 5.02193 0.228573
136.352 4.49657 0.209805
128.322 4.36496 0.208058
135.028 4.75993 0.231795
141.119 5.01379 0.244763
125.962 4.44441 0.227695
124.475 4.4485 0.230182
130.948 4.74057 0.250099
117.216 4.61936 0.246145
130.907 5.16873 0.281016
111.551 4.68938 0.257152
113.819 4.65656 0.261988
118.008 4.88757 0.275617
110.454 4.50169 0.260364
112.615 4.90435 0.295423
104.886 4.60173 0.273476
96.94 4.18085 0.253462
100.946 4.7505 0.301847
96.7748 4.83308 0.308281
88.5556 4.35927 0.279095
96.2773 4.58521 0.30189
90.3617 4.42156 0.291864
90.9764 4.46683 0.303206
86.2501 4.39496 0.302941
93.6268 4.76752 0.338752
87.4312 4.76596 0.333373
85.9903 4.79694 0.349009
81.6266 4.47834 0.327784
84.6145 4.69509 0.35264
79.9651 4.52065 0.347758
79.9438 4.52085 0.349876
78.2906 4.565 0.356196
78.0171 4.75572 0.382739
74.1916 4.49982 0.36633
80.5856 4.74732 0.385561
73.2744 4.32866 0.36034
72.7454 4.714 0.402564
69.9802 4.14093 0.354263
67.5967 4.27087 0.374482
66.3993 4.33245 0.380273
65.3312 4.60906 0.416288
65.0436 4.51677 0.406923
62.0284 4.3004 0.404746
68.0488 4.62825 0.434184
64.2451 4.53975 0.433822
65.0114 4.62026 0.44753
61.8456 4.30289 0.41523
59.3352 4.20717 0.412184
64.9258 4.93708 0.493461
56.7344 4.39836 0.453358
59.5194 4.55774 0.469266
56.8687 4.51201 0.469192
58.4732 4.42262 0.464846
62.5535 5.00297 0.537009
55.3268 4.48781 0.486969
53.6948 4.89097 0.540751
55.4897 4.48914 0.505545
55.4909 4.41278 0.490982
48.6854 4.25107 0.490254
52.2424 4.60639 0.535927
52.5041 4.6314 0.531183
52.4687 4.64925 0.554148
50.2236 4.65263 0.559938
54.7812 4.99437 0.600623
48.115 4.5723 0.565115
52.1808 4.88445 0.607848
48.0737 4.50919 0.566492
47.2457 4.60719 0.589286
51.3451 4.87197 0.626876
45.5525 4.87719 0.635123
41.5403 4.33141 0.577079
48.1087 4.97139 0.667255
45.5691 4.74108 0.657009
45.1909 4.59516 0.626519
44.6959 4.76383 0.657791
42.5516 4.393 0.609618
42.7317 4.35417 0.619467
43.5496 4.68115 0.684334
46.0991 4.89644 0.70384
39.5303 4.46258 0.647372
40.6351 4.49628 0.655816
41.6161 4.67243 0.688123
41.7418 4.89627 0.745978
42.613 5.02895 0.776812
44.0658 4.59479 0.702079
38.9182 4.33556 0.705649
37.4315 4.45761 0.698721
42.4254 5.04771 0.807335
37.4218 4.54761 0.722162
38.2924 4.52006 0.748526
40.6497 4.79146 0.773425
40.2365 4.81032 0.802791
39.6831 4.8895 0.814091
37.7333 4.77404 0.817634
37.1859 4.65768 0.799331
37.8346 4.85996 0.853407
37.9613 4.73829 0.833134
34.4785 4.46244 0.790669
35.6973 4.90249 0.890123
35.0636 4.68645 0.844904
33.9588 4.64393 0.837587
35.7663 4.55675 0.853792
33.2137 4.28986 0.802131
31.7358 4.47401 0.837408
32.8 4.78413 0.915949
32.4114 4.29621 0.815155
30.8468 4.38856 0.84907
32.3322 4.68374 0.915536
30.76 4.74659 0.938215
33.0291 4.84164 0.957444
29.7657 4.57607 0.923454
30.1744 4.6458 0.931557
32.3892 4.98692 1.02142
28.0792 4.48793 0.938933
27.9597 4.45956 0.926323
29.6596 4.8139 1.01277
30.7904 4.66524 0.998164
29.8304 4.85377 1.04476
27.0374 4.49146 0.977927
29.5772 4.53326 0.975772
28.1609 4.63565 1.03663
29.3064 4.93384 1.10129
29.8057 5.09159 1.15844
29.3207 4.94742 1.11391
27.059 4.61754 1.063
29.7871 4.88669 1.12061
26.7036 4.49573 1.06048
27.0804 4.50946 1.05663
30.0217 5.38894 1.29066
27.0778 4.88485 1.17423
25.9663 4.92377 1.18945
26.0044 4.49719 1.09366
25.8802 4.71813 1.17442
27.6099 5.31095 1.31574
26.8396 5.27013 1.3389
23.1385 4.50521 1.14105
26.9111 5.00786 1.25554
27.0198 4.91736 1.27092
26.8758 4.86554 1.25059
24.1965 4.78399 1.23654
21.3073 4.07453 1.08153
23.9212 4.62669 1.21805
22.4225 4.43047 1.19472
24.6721 4.72941 1.26848
22.5331 4.49239 1.23094
23.523 4.61484 1.26798
22.2703 4.5864 1.23704
21.6385 4.71152 1.31564
23.1463 4.81047 1.33953
23.513 5.11818 1.43423
20.8239 4.38902 1.23722
20.5552 4.43164 1.30149
22.9931 4.77911 1.37851
20.9119 4.29888 1.251
21.252 4.63074 1.33096
21.5025 4.56801 1.3534
21.5571 4.66287 1.41045
20.8215 4.66265 1.42685
20.7069 4.62876 1.40906
20.9687 4.73962 1.41751
18.9951 4.67681 1.44162
21.8466 4.96688 1.48616
19.3033 4.48869 1.41552
20.2758 4.68873 1.48231
21.1136 5.11516 1.62663
20.4755 5.02766 1.57525
18.9071 4.62744 1.4824
19.3943 4.71799 1.52261
20.3898 4.75584 1.5399
18.6915 4.48909 1.49269
19.3621 4.70986 1.58033
19.5298 4.84719 1.596
18.5861 4.72935 1.61955
19.317 4.84869 1.59596
18.1236 4.48105 1.53647
17.5967 4.70386 1.60298
17.9 4.9259 1.73662
19.8301 5.00463 1.69537
18.8759 5.21914 1.82382
17.2819 4.62337 1.66144
16.7416 4.52676 1.63024
15.8569 4.40352 1.56984
19.1907 4.81768 1.73162
17.2453 4.67763 1.70475
17.2116 5.02611 1.82987
17.0616 4.53439 1.67543
17.581 5.18893 1.92888
17.6939 4.99987 1.85567
16.5502 4.82851 1.84502
17.7268 5.2566 1.94495
15.6694 4.44522 1.66717
16.092 4.57517 1.7525
16.1418 4.87788 1.85234
15.4617 4.45593 1.74933
16.1432 4.84387 1.87938
16.3158 4.92791 1.95284
14.7343 4.35953 1.70907
15.1671 4.84649 1.95097
15.0671 4.54035 1.82743
14.4949 4.44462 1.78154
14.0977 4.80282 2.00763
15.3851 4.83613 1.94903
15.8782 4.94909 2.05421
15.1745 4.68355 1.91653
14.0201 4.61628 1.9563
14.6001 4.88156 2.03227
16.0774 5.13765 2.16457
13.4842 4.47008 1.91505
13.9523 4.55935 1.91242
14.4043 4.84181 2.10181
15.6726 5.01009 2.19888
13.8835 4.73495 2.02534
13.7435 4.67904 2.03664
12.7936 4.47094 1.97499
13.7832 4.56269 2.04901
13.1321 4.34858 1.97303
13.0934 4.60323 2.04855
13.9551 4.51053 2.02221
13.2032 4.57052 2.07114
12.7902 4.70048 2.15333
12.2287 4.45277 2.04854
13.2841 4.69729 2.2108
12.5322 4.48933 2.1573
13.235 4.63162 2.14572
13.7725 4.80313 2.2048
14.0651 5.27869 2.49644
12.3016 4.73736 2.30925
13.1996 4.68858 2.18286
11.4334 4.36721 2.21322
13.1679 4.73762 2.24131
12.4508 4.63388 2.32804
12.7025 4.6616 2.24569
13.5631 5.15548 2.57847
13.0716 4.72506 2.33882
12.6116 4.92335 2.4363
12.217 4.76515 2.42119
13.6553 4.71297 2.36031
12.6155 4.72774 2.39819
12.6716 4.83365 2.42083
11.0187 4.39768 2.25804
12.106 4.72802 2.43674
12.3782 4.74536 2.49382
12.5391 5.02549 2.62237
12.1249 4.78449 2.51453
11.9149 5.023 2.69131
12.3832 4.74003 2.49008
11.8125 4.98108 2.61209
11.8753 4.86179 2.63342
12.4086 4.93193 2.69921
11.5606 4.42578 2.41525
11.7233 4.53289 2.4852
10.5783 4.53882 2.49944
11.679 4.94278 2.70168
12.4383 5.1869 2.92397
11.5638 4.93309 2.72775
11.9509 4.9682 2.75913
10.8425 4.81911 2.79833
12.1271 5.19547 2.93042
11.003 4.52213 2.56106
10.8268 4.91646 2.8625
11.8116 4.97852 2.86844
10.492 4.60399 2.63766
10.9215 4.73693 2.84139
11.0223 5.00352 2.87046
11.1593 5.08545 3.16804
11.5489 5.05338 2.87503
10.4357 4.41863 2.65553
11.0721 5.01968 3.00943
10.4644 4.53712 2.68633
10.1521 4.90515 2.9482
10.2882 4.60646 2.87884
9.2417 4.23319 2.58624
9.88756 4.32485 2.6939
10.9231 4.93919 3.03299
10.178 4.69444 2.99548
10.5528 4.78855 2.92081
9.98538 4.57797 2.84622
10.292 4.90284 3.04532
9.61422 4.65806 3.0444
10.5846 5.17577 3.24938
10.1882 4.63529 2.95529
10.4671 5.06156 3.28335
9.21396 4.57488 2.9243
10.3067 5.13388 3.32723
10.1386 4.78092 3.18892
9.46282 4.74263 3.14485
9.97126 4.98815 3.31539
9.71348 4.83965 3.11439
9.91522 4.91512 3.34465
10.2475 5.03324 3.2903
9.4847 4.87139 3.36619
9.787 4.85013 3.20991
10.4732 5.05788 3.40882
9.46854 4.62898 3.24403
9.84171 4.94976 3.38489
9.20487 4.62352 3.18354
8.92216 4.61748 3.18588
8.76537 4.5608 3.24044
9.09292 4.81823 3.3291
8.83163 4.60802 3.21106
9.05999 5.19443 3.62462
9.0167 4.97611 3.49741
9.40768 4.87297 3.4005
8.76144 4.85035 3.51434
8.51423 4.63195 3.30657
8.55591 4.52229 3.33465
9.09981 5.16469 3.65308
8.85792 4.77319 3.46515
9.15876 5.04879 3.73952
8.71559 4.80813 3.44173
8.9109 5.08691 3.77737
8.29257 4.43716 3.4654
8.32447 4.68283 3.46809
8.25502 4.81841 3.58597
8.29279 4.64436 3.48295
8.35272 4.82647 3.71309
8.57966 4.92503 3.76718
8.73172 4.94726 3.78685
7.90404 4.30868 3.21318
8.3983 4.77149 3.70312
8.65862 5.25319 4.04776
7.53726 4.70068 3.64164
8.06526 4.89134 3.82088
7.99455 4.77133 3.73765
8.12482 5.15864 3.98882
8.19113 4.903 3.91763
7.85619 4.7517 3.8389
7.76438 5.14404 4.11418
7.8016 4.85582 3.95917
8.51821 5.11921 3.93051
7.58252 4.82656 3.97441
7.13446 4.10216 3.29225
7.954 5.14278 4.30287
7.87951 4.55107 3.70866
8.6812 5.54672 4.39903
8.26572 5.15898 4.31257
7.66596 4.83609 3.95034
8.07013 5.05753 4.23522
7.42898 4.83996 4.00168
7.55755 4.70839 3.92042
7.3797 4.71322 3.98079
7.40843 4.67944 3.85143
7.64743 5.18756 4.31551
6.63206 4.50134 4.09726
6.89003 4.74561 4.03202
7.49171 4.99718 4.34552
7.32512 4.86057 4.16538
7.28558 5.09306 4.38901
7.2941 5.03164 4.39186
7.4311 5.16269 4.55397
7.08716 4.71233 4.28071
7.96441 5.0403 4.24658
6.91809 4.44703 4.06717
7.05796 4.68764 4.18537
6.93918 4.78629 4.24525
7.33294 5.30833 4.90897
7.56336 4.80574 4.26098
7.10796 4.84162 4.29016
7.54676 5.14894 4.81357
6.78048 4.61838 4.34479
6.97356 5.02621 4.55305
6.93518 4.97203 4.50217
6.62937 4.50776 4.08219
6.86772 5.02338 4.75653
6.79838 4.68041 4.33174
6.83045 5.04463 4.66077
6.62128 4.6271 4.29044
6.99504 5.01335 4.78753
7.00953 5.06743 4.75957
6.57565 4.8159 4.60797
6.80531 4.89343 4.53529
6.17085 4.63766 4.38368
6.71648 5.10796 4.8345
6.83366 5.05384 4.82786
6.36354 4.55477 4.48466
6.33799 4.60287 4.79211
7.27827 5.11891 4.8998
7.16262 5.5339 5.22276
6.84645 5.09005 4.99264
6.73669 4.71249 4.69088
6.1826 4.653 4.68103
6.16471 4.65324 4.72746
6.94924 5.3074 5.14915
6.42031 5.00838 4.89257
6.12556 4.74376 4.84073
5.77777 4.58457 4.72375
6.69429 5.41093 5.33984
6.16156 4.58322 4.70462
6.34988 4.80584 4.8991
6.29041 4.83037 4.97112
6.17761 4.77561 4.93326
6.68471 4.8597 5.02402
6.70131 5.07175 5.06888
6.14946 5.00271 5.29123
6.02569 4.67779 4.85516
5.75575 4.57117 5.01113
6.20558 4.95763 5.18364
6.16904 4.82046 4.91133
5.90765 4.69581 4.88944
5.99294 4.7863 5.17385
5.6703 4.64863 5.00656
5.59163 4.75707 5.20727
6.19519 5.06169 5.3823
5.68462 4.83413 5.36981
6.13051 4.8902 5.15488
5.73343 4.714 5.12905
5.38997 4.73917 5.34179
6.17896 4.60362 4.85375
5.9282 4.84783 5.38668
5.70629 4.68763 5.12428
5.63045 4.68004 5.41129
6.27201 5.10911 5.37715
5.93049 4.73644 5.06937
5.84742 5.32126 6.16125
5.53815 4.48039 5.21684
6.02864 4.96211 5.38167
5.76851 4.98212 5.48116
5.74974 4.72399 5.34783
5.72953 4.89437 5.52001
5.57093 4.72985 5.56498
6.02576 5.21818 6.02677
5.84167 4.8215 5.51116
6.03743 5.26031 5.88458
5.82287 5.16722 5.92192
5.80414 4.71889 5.4235
5.75202 5.21301 6.04489
5.27248 4.8218 5.7084
5.62394 4.88892 5.60795
5.41157 4.93413 5.89633
5.55659 4.86836 5.89308
5.97882 5.59556 6.53258
5.3789 4.70088 5.62353
5.57113 4.7771 5.58228
5.56782 4.77524 5.68145
5.76082 5.34381 6.62481
5.52226 4.81661 5.68544
5.18843 4.8149 5.73338
5.44877 5.16852 6.3727
6.21316 5.59417 6.53255
4.98769 5.03625 6.34518
5.20733 4.68591 5.68195
5.19683 4.93412 6.08711
5.76349 5.27443 6.46338
5.07421 4.68614 6.12395
5.28926 4.75769 5.90735
5.40528 4.75101 5.9009
5.46823 5.14585 6.39233
5.16225 5.05009 6.24609
4.72056 4.35369 5.37448
5.01108 5.0382 6.25273
5.20773 4.92049 6.54624
5.59316 5.33037 6.52349
5.69676 5.66071 6.82569
4.72379 4.66878 6.18918
5.21108 4.95342 6.35448
5.05029 5.15421 6.54598
5.02195 4.70906 6.18243
5.08642 4.77848 6.0674
4.73298 4.87146 6.46191
5.44526 5.29433 7.12029
5.45604 5.5212 7.13345
5.15321 5.29184 6.87655
4.89975 4.8886 6.23536
4.9041 4.98723 6.53884
4.98845 5.00245 6.52618
4.86766 4.77502 6.46331
4.96311 5.19166 6.91941
4.99259 5.19788 6.95692
4.82538 4.64937 6.38023
5.20638 5.45028 7.18725
4.96254 5.50572 6.92398
4.73645 5.1159 7.31178
4.96039 5.23013 7.07357
5.0583 5.201 7.14511
4.91513 5.32934 6.99172
4.56754 4.95016 6.89689
4.77291 4.96066 6.91463
5.02652 5.63241 8.02566
5.37575 5.3744 7.02454
5.01356 4.9992 7.1153
5.30963 5.83756 7.8751
5.00566 5.52802 7.75243
5.01648 5.16797 7.28028
4.77959 4.81128 6.53448
4.65856 5.11265 7.28303
4.66464 5.04747 7.01688
4.58331 5.22468 7.47437
4.70128 5.37471 8.27917
5.56006 6.27498 8.36492
5.14505 5.50358 7.29521
4.06732 4.84256 7.46864
4.69042 4.82384 7.17084
5.00191 5.26131 7.04917
4.45886 4.99388 7.18393
4.50448 4.83845 6.8999
4.32641 4.91155 7.25075
4.38767 5.17396 7.3941
4.36752 4.9349 7.22014
3.79525 4.51031 6.79423
4.29064 4.83963 7.05245
4.1949 4.75604 7.0236
4.34265 4.99621 7.27214
4.21179 5.14457 7.669
4.44948 5.04949 7.43061
4.43598 5.04313 7.50833
4.31354 4.93151 7.23147
4.01379 4.84195 7.22221
4.3135 4.91789 7.35167
4.50489 4.85529 7.12208
3.96782 4.70253 7.05411
4.09693 4.77106 7.19909
4.23586 5.03432 7.68143
4.55177 5.46377 8.33102
4.15933 5.08483 7.88751
4.30114 4.72883 7.32942
4.49323 4.80081 7.12057
4.05833 4.98116 7.94591
4.25612 4.86093 7.2988
4.21868 5.13041 7.84566
4.07242 5.0369 8.14421
4.12269 4.80426 7.585
4.11134 4.61308 7.43267
4.37762 5.48775 8.00787
3.90114 4.72313 7.71566
4.16944 4.76761 7.35076
4.17397 4.98796 7.78977
4.17869 5.03705 7.90609
4.1058 5.1244 8.28206
4.06995 4.64846 7.19627
3.73634 4.91781 7.5744
4.22945 5.30185 8.67005
3.89794 5.08138 8.21953
3.98583 5.07953 8.43451
4.40463 5.13886 7.92167
3.85133 4.70259 7.83359
4.06821 5.15038 8.1316
4.18194 5.32615 8.8244
4.03071 5.06412 8.49945
3.95275 4.90516 7.77933
3.69009 4.48913 7.47323
3.94035 5.29854 8.79303
3.95554 4.91182 8.42078
4.1692 5.20485 8.45904
4.19407 5.40219 8.99974
4.20395 5.43574 8.92653
4.13953 5.01982 7.84126
3.72477 4.4901 7.25802
3.89528 5.21217 8.71611
3.49674 4.86468 8.25678
3.78734 5.03703 8.60326
4.23327 5.23631 8.68938
4.07152 5.25561 8.66147
3.87807 5.05332 8.79714
3.75824 5.06509 8.61201
3.76047 4.68635 7.98512
3.93267 5.29543 8.92987
3.6884 5.1319 8.8374
3.99035 5.47749 9.53898
4.05501 5.23628 8.60088
3.63255 4.7717 8.39691
4.18068 5.44943 9.19212
3.76663 5.01279 8.97546
3.98106 5.01215 8.66373
3.92901 5.47985 9.64898
4.0004 5.35151 9.34211
3.77866 5.21065 8.98452
3.82694 5.19009 8.88088
3.54196 4.89145 8.91649
4.25042 5.60172 9.61825
4.07938 5.46779 9.35404
3.77744 4.98547 8.73196
3.51207 5.1153 9.45688
4.08099 5.54186 9.77442
3.65646 5.05747 9.11722
3.73826 4.84803 8.62799
3.45076 5.03753 9.61278
4.06346 5.29632 9.14399
3.65711 4.88775 8.77706
3.69767 5.11363 9.61655
3.90314 5.13305 9.27908
3.8251 4.94639 8.758
3.54493 4.90188 9.3237
3.61718 4.74044 8.84946
3.86989 5.12144 8.70367
3.49527 5.09763 9.64855
3.55978 4.72823 8.64043
3.7875 5.64954 10.5051
3.45419 5.03776 9.23185
3.62897 5.06472 9.3251
3.50044 5.31852 10.2319
3.92387 5.3594 9.79788
3.52904 5.17642 9.25972
3.48783 4.82761 9.08762
3.45901 5.15024 10.1497
3.59646 5.0193 9.40005
3.62148 4.9271 8.70222
3.46056 5.092 9.63906
3.62277 5.6102 10.5793
3.60633 5.31136 9.97664
3.36515 4.49204 8.21069
3.26633 4.91529 9.90131
3.49348 5.09708 9.70536
3.58092 5.18321 10.3571
3.57207 4.94993 9.20059
3.3302 4.5624 8.89604
3.42208 4.75036 8.87271
3.33122 5.06327 9.59572
3.29854 4.78738 9.24292
3.52732 5.52372 10.5754
3.35814 5.22026 10.3263
3.60191 5.07712 9.51801
3.29397 5.22383 10.6915
3.56334 5.5102 10.5519
3.30691 5.04311 10.2049
3.74755 5.41437 9.9424
3.22307 5.14869 10.6982
3.4259 4.79935 9.73308
3.66376 5.33548 10.261
3.43986 5.11491 10.4174
3.62277 5.37261 10.3195
3.55604 5.45018 10.5662
3.33067 5.11902 10.024
3.26455 5.06145 10.2088
3.45331 5.06201 9.77118
3.17146 4.62357 9.66332
3.29156 5.3432 11.2255
3.65161 5.81211 11.2323
3.40386 4.94756 9.54712
3.12564 4.7931 9.46787
3.06572 4.85495 10.1588
3.24769 5.30583 11.0448
3.32678 5.06232 10.0427
3.07897 4.66025 9.90161
3.0672 4.84356 10.0273
3.28611 5.20048 10.7793
3.18276 4.99129 10.3214
3.39662 5.32958 10.6279
3.03885 4.93258 10.0198
3.11569 4.85953 10.3267
3.28477 5.25434 10.6923
3.31339 5.21889 11.3936
3.2995 5.44564 11.1309
3.39291 5.13379 10.7181
3.4495 5.56956 11.2987
2.96854 5.06104 10.5858
3.1442 5.00815 11.0863
3.45147 5.35327 10.7443
3.2725 5.49541 11.3488
3.23753 5.25774 11.0083
3.18964 5.28428 10.9969
3.04044 5.08674 10.6218
3.13109 4.95799 10.5303
3.16704 5.42676 11.5088
3.26939 5.34098 10.5447
2.84434 4.83725 10.9336
3.08353 5.25376 12.0146
3.31038 5.30029 11.1001
3.13231 4.8034 10.2159
3.1529 5.3331 12.202
3.34978 5.55662 11.6466
3.04594 5.16538 10.9386
3.16 5.36699 11.4798
2.91827 4.76639 11.1044
3.31048 5.4331 11.5301
3.13592 5.10464 11.1983
2.84064 4.71061 9.9799
3.10922 5.24752 11.3466
2.9604 4.85894 10.1098
2.74558 4.96476 11.0257
2.89278 4.92639 11.4242
3.11926 5.31774 11.4766
2.81682 5.2732 12.4817
3.0879 5.11073 11.5544
3.06637 5.06518 11.2264
3.07736 4.98342 11.0035
2.99137 5.22315 11.4622
2.92452 4.94368 10.6691
2.93052 5.21193 11.4097
2.79896 4.87261 11.3396
3.1542 5.05608 11.0843
2.79653 5.13895 11.615
2.88509 4.79521 11.0728
2.8695 4.77626 10.4169
2.69467 4.98376 11.4656
2.76896 4.79292 10.9827
2.97675 5.31169 11.747
2.79311 4.96971 11.1445
2.72619 5.16125 11.468
2.67335 4.45803 11.2793
3.06665 5.37855 12.0354
3.0596 5.21833 12.0498
2.88463 5.23544 12.6228
3.15386 5.54084 12.4292
3.09494 5.32867 11.6583
2.96432 5.18226 11.3822
2.9227 5.0747 11.5435
2.61585 5.12929 12.3377
3.02024 5.44439 13.2259
3.08917 5.18343 11.1534
2.75283 4.82191 11.6685
3.10051 5.70316 12.6418
2.8939 5.37666 13.0478
3.17572 5.76263 13.0453
2.88315 5.21244 12.2973
2.91807 5.4765 13.423
3.02263 5.65824 13.0021
2.82619 5.22471 12.4558
2.8895 5.33273 12.9629
3.13521 4.86727 10.9405
2.84268 5.45935 13.2174
2.91381 5.23624 13.0357
3.16824 5.68054 13.6619
3.01931 5.3803 12.7893
2.89956 4.97575 11.465
2.46714 4.74696 11.976
2.82489 5.49633 13.0687
2.89391 5.34482 12.9718
2.76885 5.17648 12.3301
2.95379 5.48639 13.486
2.91041 5.34415 12.7399
2.94781 5.44579 13.3947
2.99857 5.33305 13.5487
3.20091 5.32142 11.6642
2.707 5.23482 13.082
2.85942 5.24087 12.1976
2.80372 5.03637 12.5026
2.85755 5.44013 13.3929
2.8681 5.27748 13.2061
2.89555 5.19389 12.1454
2.72977 5.22516 14.512
3.32873 6.17582 13.8624
2.97082 5.54172 13.6348
2.75711 5.43889 14.0578
2.95184 5.19609 12.2419
2.59064 5.14851 13.1966
2.65376 5.18159 13.2673
2.86022 5.19655 13.0025
2.85901 5.69423 13.5657
2.6872 5.19005 12.6201
2.78454 5.47733 13.1684
2.4285 5.0123 13.6127
2.51173 4.87001 12.7108
2.72375 5.39464 13.5044
2.728 5.30203 13.2957
2.71887 4.85636 12.268
2.72186 5.45708 13.7112
2.78376 5.34183 13.6624
2.74402 5.37915 13.6618
2.87592 5.59117 13.8525
2.70428 5.23193 13.7838
2.85869 5.42062 13.5215
2.714 5.33383 13.5098
2.72343 5.20497 13.6129
2.88831 5.31383 14.2788
3.02672 5.81693 14.2646
2.73014 5.45224 14.172
2.67195 5.43523 14.1988
2.78376 5.45154 13.995
2.9806 6.0999 15.3674
2.71264 5.38612 14.0428
2.87627 5.93466 15.5794
2.85798 5.9584 15.3408
2.95933 5.77616 15.2264
2.87895 5.94079 15.1164
2.75558 5.84233 15.2776
3.06108 6.2829 15.9666
2.86268 5.92241 14.1605
2.59144 5.11461 14.7951
2.82565 5.96791 16.0397
3.08201 6.33604 16.4691
2.96577 6.115 16.5858
2.80985 5.61678 14.1448
2.65408 5.74612 14.6878
2.59332 5.4167 14.4143
2.44024 5.09091 14.4026
2.60638 5.60837 15.4579
2.84926 5.66358 15.5086
2.85298 5.72793 14.7311
2.69814 5.46727 14.1998
2.62827 5.31157 13.8849
2.44853 5.42445 15.3579
2.71016 5.30669 14.0463
2.73003 5.75426 14.7171
2.5997 5.59576 15.1227
2.59267 5.54413 14.9254
2.51131 5.08822 14.2878
2.62256 5.16378 13.8258
2.43282 5.34359 14.2016
2.45324 5.20863 14.8655
2.74815 5.60742 14.9629
2.61118 5.5976 14.118
2.39729 5.22923 13.8221
2.47346 5.48833 15.0317
2.58777 5.22634 14.0784
2.53709 5.44722 15.0431
2.54144 5.21245 14.1375
2.42726 5.53471 15.3997
2.33541 4.92116 13.3106
2.47036 5.17601 13.6173
2.42395 5.14891 14.5879
2.39108 4.93465 14.1044
2.45866 5.40149 14.8318
2.50786 5.66729 15.4126
2.50288 5.14787 13.9116
2.64722 5.75727 15.3784
2.41201 5.24641 14.7651
2.44455 5.06323 13.5591
2.26644 5.37541 15.1107
2.57536 5.69256 15.8722
2.45689 5.10227 14.292
2.36632 5.01902 13.8902
2.27704 5.32572 14.727
2.36916 5.65404 16.2509
2.38361 5.09034 15.0534
2.33897 5.24704 14.9275
2.52159 5.49354 15.0113
2.56212 5.37098 15.0287
2.46319 5.11139 14.3253
2.40871 5.28384 14.8912
2.54959 5.55751 15.6481
2.43596 5.28762 14.7191
2.48084 5.62358 16.0158
2.41687 5.63734 15.3817
2.31837 4.76016 13.9048
2.37307 5.5546 15.7244
2.34797 5.31466 17.1388
2.75807 5.3861 15.3504
2.56387 5.50718 14.6176
2.27634 4.93382 14.5532
2.26927 4.94025 14.2532
2.33495 5.65871 16.3467
2.44719 5.50924 15.6324
2.65651 5.54792 15.2494
2.35129 5.8785 16.1335
2.17408 5.17916 16.3013
2.3876 5.07266 14.5211
2.27566 5.01042 14.1902
2.18243 4.96336 15.3807
2.42633 5.2419 15.3705
2.32448 5.41135 15.3589
2.27878 5.4128 15.2491
2.1875 5.3866 16.1348
2.38356 5.23901 15.0832
2.40602 5.36353 15.5747
2.28038 5.20935 15.5146
2.32312 5.1307 15.3471
2.57986 5.50783 15.0102
2.22405 5.6245 16.8562
2.3544 5.28415 14.7087
2.10761 4.86048 15.5602
2.41988 5.26195 14.9785
2.26377 5.10664 15.6198
2.14233 5.02422 15.3616
2.35984 5.42589 14.5901
2.22203 5.67509 16.1743
2.05715 4.67857 13.8146
2.20336 5.24418 17.1402
2.56651 5.79691 16.8573
2.36604 5.59115 16.7847
2.31515 5.37251 16.0365
2.2554 4.87892 14.8313
2.51798 5.70237 15.4505
2.2379 5.67765 17.9267
2.508 6.00475 17.367
2.4452 5.30516 16.64
2.3525 5.43578 17.0612
2.48471 5.71009 16.4072
2.44334 5.48852 16.1717
2.3772 5.02053 15.2987
2.19997 5.27478 16.738
2.38875 5.10019 15.4223
2.2281 5.37481 16.0516
2.24668 5.49687 17.1091
2.44029 5.68172 16.5945
2.28145 5.60456 17.1723
2.26213 5.35677 16.8946
2.37004 5.2727 16.3064
2.35507 5.22488 15.7523
2.20047 5.37193 16.9081
2.20296 5.40309 16.7645
2.24616 5.48165 17.1743
2.44079 5.55258 16.6402
2.35023 5.97602 18.1914
2.49449 5.17035 14.9227
2.02665 4.92071 15.3854
2.20872 5.34956 16.188
2.09756 5.16808 15.7043
2.20079 5.51517 16.7031
2.23231 5.47128 18.0827
2.34423 5.58764 17.9766
2.59689 5.73124 17.4055
2.50553 5.46366 15.4396
2.2071 5.55655 17.788
2.21081 5.14678 16.5141
2.34272 5.45958 16.8196
2.25672 6.07294 19.5198
2.49936 5.33917 16.6426
2.27836 5.18947 16.2171
2.29023 5.28364 16.071
2.19277 5.36864 17.6241
2.30114 5.57605 16.2351
2.04965 5.15363 14.9208
1.93881 5.10221 16.8934
2.20109 5.5361 17.6943
2.3418 5.62016 17.5561
2.22158 4.99909 16.998
2.22343 5.61202 17.5661
2.28332 5.30145 15.5213
2.07623 5.12437 16.5544
2.26396 5.67883 17.1401
2.12359 5.13332 17.4537
2.39025 5.93541 18.6168
2.29793 5.44777 16.657
2.1295 5.20336 17.5071
2.34415 5.74201 18.18
2.3181 5.44029 17.2055
2.16391 4.71416 15.9634
2.32648 5.74648 17.3065
2.15465 5.33594 17.0579
2.18139 5.39918 17.8831
2.26505 5.64528 17.5571
2.19711 5.84966 18.8694
2.22348 5.41817 17.6445
2.22244 5.82272 18.5199
2.05971 5.51794 18.5278
2.27851 5.52093 17.2613
2.20656 5.41631 16.8621
2.01831 5.05481 16.4602
2.0637 5.0225 16.9133
2.26349 5.72736 17.6489
2.0337 5.43812 17.3143
2.02124 4.9477 16.6772
2.15514 5.60788 18.5754
2.20272 5.58438 18.0334
2.2306 5.70212 17.6716
2.08515 5.32852 17.3218
1.97782 4.93064 16.4731
2.13309 5.79179 19.1807
2.10461 5.12765 16.0352
1.98872 5.50837 17.7759
1.96282 4.94634 18.1687
2.27433 5.92172 18.3156
2.23272 5.59541 17.3979
2.06277 5.52191 19.5946
2.25073 5.40451 17.301
2.0726 5.16585 17.589
2.1043 5.27772 16.7506
2.07058 5.32992 18.1678
2.16952 5.56181 17.7725
2.14065 5.57909 17.6669
2.06809 5.52048 17.6676
2.00038 5.14893 17.5756
2.00365 5.50644 19.0595
2.14035 5.19276 18.0688
2.14045 5.72996 19.153
2.32819 5.87694 18.6835
2.1918 5.66864 18.1909
2.04857 5.36907 18.2463
2.05151 5.34685 17.5778
1.98162 5.07977 17.9194
2.1182 5.4097 17.4439
2.0502 5.32765 17.9331
1.99501 5.33815 18.3245
2.06554 5.82687 19.8995
2.22197 5.79745 18.4976
2.18667 5.59465 18.5639
1.97286 5.13375 16.9544
1.9985 5.14307 17.628
1.999 5.5892 19.6352
2.20506 5.58255 18.0282
2.09538 5.45613 18.188
2.09384 5.89749 20.8121
2.16815 5.15309 17.5559
2.13562 5.7994 19.2085
2.15205 5.28433 17.6657
2.0404 5.7746 19.8482
2.20251 5.98383 20.9064
2.14026 5.29798 17.8335
2.00094 5.83388 19.4036
2.01834 4.96263 17.5869
1.86192 4.75354 16.2726
1.93236 5.83883 18.9469
1.9318 5.5711 18.7947
2.0003 5.17784 17.2407
2.06408 5.64589 19.4268
1.9669 5.54172 19.3873
2.14598 5.48323 17.3916
1.90774 4.95155 18.0771
2.06249 5.63729 19.361
1.96687 5.33036 18.0623
2.04777 5.40147 18.3848
2.00997 5.71598 19.7945
2.03899 5.41654 19.3969
2.14967 5.5214 18.5058
2.02982 5.18082 18.1711
1.96494 5.22429 17.4067
1.93499 5.31696 19.2148
2.07818 5.62664 19.5668
2.06407 5.97012 19.0849
1.92228 5.60193 18.2626
1.87309 4.78261 18.5194
2.03623 5.24863 18.0193
1.9471 5.54503 18.0794
1.84689 4.85351 17.9926
2.00431 5.50356 17.8303
1.87922 5.49515 19.486
1.91448 4.97963 19.5778
2.13123 5.6212 18.5836
2.0091 5.45219 18.4717
1.98724 5.68696 20.8955
2.29432 6.09069 20.6929
2.09608 5.32485 18.094
1.93511 5.2311 18.531
1.96191 5.43001 18.9614
2.0346 5.55229 20.0899
2.16852 5.59319 19.3241
1.99848 5.32949 18.6959
1.87819 5.81098 19.8969
2.0826 5.64047 19.1299
1.9489 5.51843 20.1004
2.12524 6.07335 19.418
2.01491 5.47673 20.2588
2.03275 5.64059 19.9291
1.98628 5.40142 19.3739
2.09918 5.41417 19.3203
1.96347 5.76368 21.7696
2.17424 5.45481 18.1093
1.96163 5.37975 19.6681
2.06853 5.65996 19.2003
1.98666 5.36754 19.7561
1.98882 5.2039 19.8061
2.14623 5.84652 20.1646
2.03449 5.47597 20.0137
2.08116 5.60796 19.7945
2.05025 5.48077 20.0843
2.09063 5.72397 20.128
2.06016 5.41459 19.8757
2.15634 5.56552 20.0282
2.13166 5.8375 19.862
2.06883 6.28723 20.9147
1.97679 5.40218 21.0735
2.10786 5.62805 19.6281
2.00716 5.82156 22.2352
2.19459 5.7996 20.3439
2.10593 5.69766 21.5304
2.21459 5.71948 20.3931
1.97088 6.04152 20.346
1.88607 5.54575 20.8257
2.21382 5.60535 20.9681
2.15176 5.64651 19.6034
2.09122 6.23868 22.5482
2.11825 6.35704 22.4047
2.11752 6.66821 25.1013
2.36092 6.30875 22.2015
2.14267 5.86861 20.1245
1.92137 6.1435 24.4937
2.35749 6.54699 24.6844
2.54057 6.21455 22.1487
2.21141 5.99241 21.3547
2.00464 5.27359 20.0027
1.99844 5.79464 20.6303
2.22733 6.82101 22.6093
2.1601 6.62303 23.4666
2.21976 6.42384 21.7182
2.00385 5.75194 21.3214
2.0037 5.75771 20.8591
1.99706 5.57471 21.7974
2.12096 5.86096 21.4744
2.1552 5.74563 21.1886
2.06631 5.61017 20.4568
1.97455 5.93409 20.4906
2.01208 5.81206 21.5333
1.94548 5.71948 21.4701
1.91924 5.47155 19.1122
1.90279 5.4989 20.4744
2.02778 5.45679 19.3793
1.96125 5.42649 20.5956
1.91493 5.53711 21.1486
2.08535 5.80394 20.306
1.88918 5.28579 20.4793
1.90816 5.33609 20.0805
1.86336 5.34271 19.6352
1.89533 5.87518 21.1956
1.99287 5.70292 21.7794
1.9792 6.07946 21.4433
1.99611 5.70644 20.7965
1.95163 5.35259 20.4806
1.92234 6.30778 22.3023
2.05746 5.88498 20.6687
1.90855 5.83911 21.7851
2.01131 5.7713 21.1004
1.87584 5.38419 20.5332
1.92565 5.62015 21.5483
1.95247 5.64179 20.7575
1.93627 6.09458 22.7417
2.00521 6.0491 21.9143
1.97235 5.49846 22.1515
1.97515 6.00627 19.4789
1.76572 5.51325 20.3989
1.88295 5.40383 20.3025
1.90591 5.37468 21.0976
1.85622 5.4916 21.9406
1.94144 5.10331 19.2723
1.82665 5.57721 20.0805
1.75186 5.372 18.3432
1.64367 5.24584 20.6004
1.9099 5.45869 21.539
1.81383 5.30205 21.0853
1.93205 5.61477 19.0808
1.74691 5.47363 20.5803
1.81757 5.58576 19.7219
1.84513 5.49085 21.5208
1.94723 5.62519 19.1794
1.74876 5.15931 21.2086
1.89077 5.55005 21.0998
1.88912 5.60341 20.4193
1.88501 5.58527 21.15
1.90336 5.39742 19.2826
1.80836 5.24034 18.9343
1.70857 5.20881 19.8214
1.75412 5.1142 20.9313
1.88088 5.54251 21.7162
1.94548 5.65951 21.6546
1.93881 5.65932 21.3188
1.8669 5.26166 19.5605
1.81301 5.45865 20.1259
1.76693 5.52172 21.9123
1.86394 5.50256 21.5985
1.87552 5.61699 19.9901
1.85455 5.757 21.704
1.94668 5.52209 20.9576
1.83162 5.47741 20.6184
1.8794 5.59251 19.4678
1.72908 5.43391 20.518
1.78351 5.42439 20.0985
1.73748 5.16972 19.3414
1.75148 4.8831 20.1472
1.83323 5.81072 20.6241
1.8347 5.41182 19.987
1.77392 5.43478 20.3763
1.82639 5.52618 20.9377
1.75966 5.46741 21.7303
1.84108 5.44109 22.3268
1.99184 5.92637 22.3801
1.94422 5.84319 22.0598
1.92002 5.65258 19.8457
1.73067 5.3768 22.8226
1.929 5.32096 21.4651
1.91037 5.62861 21.4782
1.8347 5.39747 19.8934
1.87459 5.66944 20.1075
1.71915 5.52636 21.4338
1.85884 5.3231 22.4446
1.94017 5.69722 21.0802
1.82081 5.81568 21.0193
1.81053 5.54776 21.3794
1.8703 5.27631 21.6861
1.83805 5.6249 20.8534
1.80657 5.00041 18.7899
1.67681 5.53278 20.5599
1.79184 5.56071 21.9587
1.79783 5.75103 23.4274
2.02126 5.95072 21.833
1.71464 5.59426 22.7424
1.77239 5.21381 19.3435
1.80912 5.8364 23.1806
2.03468 5.82625 21.3145
1.79266 5.80103 21.4372
1.85294 5.47744 20.6206
1.76661 5.20343 23.7726
2.01596 5.75444 21.8644
1.86576 5.60998 21.1496
1.79128 5.31865 20.3065
1.80332 5.41696 21.1059
1.77752 5.61426 20.953
1.81654 5.37716 21.5245
1.78829 5.93359 22.4054
1.88461 5.83751 21.651
1.98507 5.42026 21.2465
1.77119 5.18048 21.9785
1.96383 5.63511 21.2271
1.93471 5.57253 19.996
1.85893 5.21549 22.3047
1.87526 5.8232 21.9617
1.89046 5.7443 22.5868
2.02733 6.0919 22.2459
1.77318 5.32747 20.5816
1.80352 5.40103 22.2807
1.91132 5.80573 23.1119
1.92384 5.76058 20.9018
1.73021 5.92695 23.086
1.84669 5.2639 19.8559
1.92811 5.96213 22.2562
1.81985 5.09625 19.7483
1.68377 5.35702 21.5516
1.88043 5.54383 21.4554
1.81301 5.61217 22.1317
1.95741 5.81578 22.6563
1.88685 5.53102 20.8525
1.84261 5.73072 23.4323
1.8509 5.75578 23.4246
1.95086 5.67663 22.0451
1.91479 5.43543 20.0625
1.67635 5.65081 24.0283
1.96816 6.3513 23.3252
1.93599 5.37297 21.9923
1.79117 5.75854 21.0419
1.70005 5.40649 21.1605
1.85062 5.69154 22.2698
1.81095 5.6697 22.9167
1.99242 5.77777 22.1833
1.87165 5.24434 20.8392
1.68299 5.19631 22.3662
1.9472 5.65329 22.1635
1.90767 5.36276 20.0245
1.76286 5.2501 20.0214
1.77011 5.89501 22.6987
1.90129 5.40405 21.0176
1.76866 5.29304 21.8197
1.79216 5.86529 22.958
1.92531 6.02438 22.5289
1.72521 5.61892 22.5489
1.84403 5.56139 21.8197
1.83148 6.07495 21.5488
1.76222 5.3974 21.8543
1.72279 5.2599 21.2751
1.73967 5.77005 21.3757
1.80212 5.28944 21.8371
1.78214 5.63022 21.5077
1.79366 5.58877 21.4041
1.80823 5.6902 22.0125
1.87562 6.10165 23.4718
1.96584 5.72979 22.9491
1.77219 5.61028 22.9184
1.81845 5.87964 22.4281
1.81628 5.54967 23.4069
1.89611 5.83414 23.7529
1.89991 5.78464 22.1241
1.85649 5.38818 19.8891
1.72542 5.42918 22.2604
1.80078 5.44146 21.9911
1.7529 5.49265 20.3595
1.69946 5.14211 20.5808
1.6979 5.28371 23.5046
1.89384 5.62217 22.1498
1.8173 5.37467 22.1802
1.82118 5.62714 21.0398
1.6966 5.15361 21.1763
1.74722 6.24212 24.6412
2.0485 5.87149 21.7976
1.75804 5.84687 22.8674
1.84137 5.47064 21.9299
1.82146 5.61739 22.7213
1.81652 5.58886 21.8724
1.79638 5.52924 22.6217
1.86801 5.70836 22.4413
1.83733 5.67624 23.3767
1.87961 5.56243 21.5526
1.82601 5.26306 20.802
1.76462 6.19878 23.5362
1.91035 5.58441 23.2467
1.90471 5.55145 20.293
1.70055 5.47579 22.2458
1.82481 5.63077 22.3353
1.83767 5.4883 21.6707
1.76193 5.77315 22.9615
1.80001 5.50975 21.7743
1.66289 5.6392 23.6596
1.8129 5.79112 23.466
1.9276 5.89869 22.2271
1.75179 5.77743 23.2132
1.83856 5.3738 21.7521
1.74531 5.31134 21.1423
1.5821 5.94015 23.697
1.84331 5.91931 23.5571
1.88729 5.88823 22.7442
1.83954 5.67214 23.3938
1.85785 5.67534 21.6585
1.70048 5.55936 22.6438
1.8163 5.90047 21.7524
1.72418 5.33517 20.8902
1.67782 5.68964 23.3815
1.89474 5.67064 22.0135
1.74831 5.95208 23.3382
1.81128 5.2319 20.8538
1.5938 5.59053 22.5936
1.7839 6.05312 24.3162
1.87035 5.61186 21.453
1.76194 5.61155 21.1309
1.72486 5.09861 23.0332
1.81056 5.56983 22.0184
1.72239 5.68194 21.9779
1.80766 5.66078 22.1943
1.76565 6.21164 23.8173
1.89098 5.38213 23.6812
1.86796 5.8843 23.2878
1.90346 5.48839 21.9816
1.87377 5.64857 22.6247
1.88373 5.49435 21.811
1.77727 6.22962 23.0614
1.73185 5.83936 29.3468
2.18709 6.48641 21.5021
1.73696 5.73599 24.6714
1.91334 6.17132 23.6065
1.81576 5.86211 22.3188
1.77394 5.54232 22.6005
1.77528 5.24204 20.8864
1.66489 5.33113 22.6464
1.78785 5.45813 21.1628
1.68442 5.91751 22.5059
1.85407 5.72572 21.5641
1.82797 5.62948 23.6556
1.93775 5.90959 27.4787
2.08196 6.48024 23.0011
1.80875 5.75458 21.5613
1.75249 5.50812 22.9473
1.79241 5.48014 20.0749
1.54462 5.30363 22.0967
1.77288 5.61453 24.8709
2.04725 5.98483 22.209
1.84063 6.05269 23.8023
1.92931 5.77716 23.2175
1.81554 5.56181 22.9923
1.83879 5.9731 22.7835
1.86227 5.71333 23.8359
1.85493 5.93629 23.4389
1.86704 5.62343 23.5561
1.91131 6.16945 24.4599
1.97915 6.28737 22.9627
1.86384 5.50065 24.362
1.97644 6.25578 22.8218
1.89384 5.78926 24.9404
2.03071 5.65665 23.0069
1.8527 6.10597 24.32
1.84439 6.28326 25.0832
2.08275 6.43445 23.0431
1.79949 5.56684 24.6421
2.02033 5.69035 22.8612
1.73448 5.30733 23.1064
1.87562 6.20876 23.1578
1.91291 6.33123 26.3506
2.15871 6.40205 26.374
2.11002 6.37942 22.8976
1.90888 0 0