# pn-170911/RbIIA-36-AMC2-1280-1959.psd
# Power spectrum* (dif=0,1,2) (really just |FT|^2)
# NOTE: only the first half! (symmetric)
# weeks: 1280-1959
# 90 clock-days, 45 excluded
# PSD: 1441
4189.14 0.186387 0.00999208
139526 2.63597 0.0130375
769951 16.3796 0.0131794
187967 7.40067 0.0135978
124881 8.44762 0.0124672
59152 6.02469 0.0140551
45061.1 6.58415 0.0132518
30998.2 6.18631 0.012883
25359.2 6.58943 0.0151109
16703.3 5.74727 0.0148083
16421.7 6.7888 0.0145516
13286.2 6.3069 0.0177948
9737.25 5.42941 0.0166553
8559.98 5.8228 0.0171204
7140.15 5.28353 0.016523
5621.4 5.45292 0.0165439
5804.78 5.90404 0.0209457
4928.34 6.02537 0.0199757
4304.24 5.67453 0.0164485
3839.05 5.52623 0.0201249
3154.9 4.91383 0.0219028
3163.72 5.87488 0.0196648
3247.85 6.44394 0.0251282
2539.02 4.91234 0.0267307
2478.68 5.83299 0.0270158
2055.58 4.99507 0.0277194
2114.7 4.95972 0.0296263
1788.54 5.13143 0.0335847
1822.72 5.80706 0.0351704
1730.36 5.29231 0.0362497
1620.72 5.86176 0.0397424
1197.67 4.68587 0.0350987
1399.53 4.90659 0.038622
1293.15 6.26683 0.0443108
1338.18 5.84849 0.0417549
1039.43 4.91777 0.0410944
1357.18 6.39003 0.0564199
1093.24 5.95904 0.0603873
859.349 4.41494 0.0406714
781.684 4.08523 0.0434818
830.948 4.51942 0.0531268
892.118 5.82147 0.0642431
914.061 6.10531 0.0608917
754.424 5.46079 0.0613627
743.831 5.05919 0.0566339
733.307 5.58941 0.062516
672.455 5.61076 0.0764192
652.674 5.31774 0.0642795
699.606 5.93905 0.0747252
559.723 5.33806 0.0679043
638.048 6.12402 0.08621
442.433 4.86448 0.068004
527.974 5.39249 0.0730444
427.566 4.96822 0.0700931
521.632 6.0772 0.0930042
460.578 5.46718 0.091681
405.912 5.37768 0.0916737
493.781 6.08109 0.101375
365.038 4.36891 0.0828685
338.073 4.36856 0.0878488
365.461 5.67949 0.108299
349.667 5.17632 0.0917946
287.202 4.03754 0.0869009
312.129 4.97943 0.108717
300.254 4.69786 0.104725
272.681 4.34263 0.0999525
292.698 4.8494 0.109221
285.607 4.98111 0.117419
321.559 5.67834 0.145231
273.609 6.07279 0.145286
250.981 4.78007 0.122466
220.004 4.2795 0.115894
275.069 5.27419 0.13849
215.157 4.67832 0.119625
218.488 4.38883 0.124522
272.754 5.66439 0.166209
234.033 5.66318 0.172226
205.466 5.0871 0.154451
229.358 5.64651 0.16806
229.307 5.56036 0.177834
193.723 4.96733 0.162979
211.594 4.98653 0.155128
209.905 4.93453 0.168261
221.2 5.62008 0.185827
229.037 6.04517 0.207893
168.163 4.91644 0.169481
155.571 4.95144 0.167536
191.722 5.64926 0.212184
163.574 4.65586 0.17884
164.301 4.94768 0.194883
133.433 4.0457 0.163944
154.394 5.32188 0.220266
183.008 6.38469 0.270774
162.379 5.49167 0.245152
126.479 4.81387 0.222183
144.09 5.43316 0.247281
138.191 4.92168 0.231605
133.183 4.99901 0.236608
143.977 5.29394 0.235294
138.591 4.87297 0.232871
155.998 5.49141 0.277453
135.573 6.01469 0.298236
117.947 4.6587 0.222777
123.414 5.24534 0.24993
125.55 4.82771 0.256164
109.43 4.56172 0.247134
118.693 5.09631 0.282153
120.639 5.3394 0.298275
132.917 6.16475 0.360906
110.422 4.6154 0.275239
111.67 5.22878 0.325967
129.661 5.55636 0.332196
105.528 5.10756 0.32162
95.6368 5.07479 0.296651
86.2463 4.33554 0.270428
89.0935 4.19672 0.279417
97.2654 4.83964 0.326471
84.165 4.25086 0.278206
112.499 5.16602 0.355983
88.2887 4.47471 0.309623
98.8388 5.03061 0.362495
98.5915 5.63146 0.402858
86.4008 4.81625 0.338238
70.7645 4.22123 0.299453
83.5899 4.67512 0.331345
84.2759 5.05572 0.377488
82.5199 4.47521 0.346432
65.1313 4.17836 0.318355
92.9394 5.60189 0.430396
84.2934 5.77632 0.486981
66.8343 4.8923 0.416326
82.0559 5.54155 0.45352
75.897 5.44888 0.452047
71.6544 5.19927 0.429718
74.6856 4.53822 0.407653
56.7875 3.71429 0.333742
69.5585 5.33496 0.490118
80.852 5.25896 0.482489
75.3683 5.04609 0.469183
75.0486 5.30733 0.485158
72.3545 5.01774 0.455922
71.5067 5.17637 0.483262
71.8965 5.21699 0.496995
72.8582 5.49952 0.525442
63.4938 4.99804 0.505023
64.6014 4.69619 0.448463
59.1165 5.00946 0.49456
70.8223 6.01222 0.629076
66.3205 6.23248 0.648186
56.0427 4.61899 0.476783
52.7379 4.92457 0.501687
55.6359 4.90687 0.545323
52.5611 4.65172 0.538506
53.6334 5.20922 0.565648
59.2419 5.56825 0.636217
62.2757 5.28487 0.614348
54.6961 5.55338 0.648154
59.9727 5.19105 0.589207
51.1221 5.20476 0.607073
57.391 5.18348 0.644846
65.9213 5.49027 0.690868
55.6228 5.12612 0.645131
43.1923 4.52545 0.541009
51.8042 5.76157 0.735325
51.8998 5.62313 0.716307
56.8372 6.16551 0.778783
40.9371 4.29457 0.537671
54.6309 6.05159 0.805079
41.3802 4.4545 0.581317
40.1283 4.13843 0.545624
36.8214 4.06325 0.587079
43.2945 5.22327 0.703443
44.1446 5.25864 0.733382
44.3427 5.06847 0.695768
37.4597 4.1282 0.626931
39.5097 3.96438 0.571147
39.766 4.57306 0.620606
37.981 4.62436 0.694585
41.6747 5.07842 0.78183
40.0125 5.77252 0.889501
50.3777 5.97695 0.894911
42.547 5.25299 0.811969
40.3123 4.60744 0.702567
43.1768 5.33969 0.837201
36.6571 4.80425 0.78589
40.5272 5.35465 0.875161
42.6246 5.59163 0.907693
33.7186 4.52099 0.765394
32.8398 4.86698 0.830067
35.9616 4.23617 0.732203
41.9036 5.62697 0.981612
36.9202 5.96258 1.01006
41.2965 6.14523 1.07007
37.4539 5.41221 0.993813
35.5442 5.08977 0.908944
34.3311 5.81789 1.05282
37.1507 5.02087 0.858175
38.7571 5.72573 1.03894
37.0279 5.49604 1.00505
31.4485 4.75058 0.882232
31.6621 5.53298 1.02147
38.1909 5.62454 1.07323
33.0159 4.66196 0.873949
34.3038 4.79061 0.922203
29.9102 4.77373 0.968619
29.4308 4.75586 0.96211
29.8836 4.94497 0.981186
27.3529 4.67916 0.90967
34.6 5.55448 1.14265
34.1374 5.42112 1.05973
38.114 5.87643 1.20074
24.312 4.39466 0.953293
29.6748 4.49255 0.999333
28.5941 4.7914 0.957587
29.6913 5.17684 1.11258
31.7718 6.01163 1.29546
27.6219 5.30338 1.20872
29.2028 4.65599 1.00452
25.8832 4.92973 1.12454
28.3111 4.79815 1.02041
28.3503 4.97165 1.10698
28.945 5.30925 1.26154
24.7746 4.55782 1.08711
33.4132 5.85021 1.35632
27.1699 5.32661 1.24075
25.1431 4.14023 0.976265
29.604 5.89666 1.41976
28.6803 6.03171 1.46798
27.5482 4.94437 1.20686
24.601 5.14413 1.2848
26.394 5.38512 1.25859
25.242 5.96125 1.45398
22.1842 4.65839 1.19421
25.5392 5.50117 1.41805
29.2853 5.79779 1.41022
25.5179 5.28236 1.38835
26.9036 5.47656 1.41211
19.4625 4.95806 1.34367
24.0278 5.21067 1.3255
21.6938 4.58537 1.18295
20.1436 4.58193 1.23378
23.9611 4.90424 1.37105
23.4036 5.30723 1.41756
22.7772 5.70563 1.50713
22.275 4.83888 1.34684
20.5469 4.95643 1.3243
25.4734 5.19805 1.48497
24.4748 5.68011 1.62525
21.4724 5.34317 1.56603
23.7998 4.86204 1.38807
23.6288 5.00864 1.41674
21.4536 5.13392 1.53915
20.8425 4.58713 1.39124
27.9958 6.59596 1.92701
21.3979 5.07056 1.55222
21.022 4.66011 1.39071
19.6528 4.48755 1.32981
18.7494 4.24492 1.33781
16.2936 4.66735 1.57164
21.457 5.29281 1.62518
21.1002 5.79194 1.72999
19.5642 4.878 1.6023
19.3795 4.81881 1.5228
21.0979 5.76529 1.86608
20.8362 4.63457 1.55982
18.7871 5.29152 1.75006
26.1242 7.20368 2.27604
17.5788 4.92377 1.70227
19.9353 5.62451 1.78483
15.2973 4.23651 1.44584
22.8115 6.26195 2.16986
19.6277 5.79713 1.8876
21.7406 5.38812 1.8004
16.7825 4.76533 1.59904
17.1115 4.60834 1.63002
13.3667 4.31262 1.51632
21.2825 6.18601 2.15246
18.8086 6.0072 2.13323
20.2075 5.15895 1.83595
17.7898 4.54659 1.64318
18.2809 5.13671 1.82574
17.4083 5.52228 2.01974
18.8421 4.85216 1.82368
21.9267 6.72809 2.47656
16.7639 4.72841 1.75438
17.5919 5.07457 1.89102
17.3768 5.63414 2.11323
16.4553 5.24154 1.95027
17.0261 5.02184 2.01109
18.1859 5.46156 2.09688
17.2221 5.27399 2.08598
20.085 6.38875 2.36339
18.9224 5.6893 2.23371
16.9333 5.59524 2.1712
17.4422 6.09994 2.57195
16.8856 6.11209 2.42411
17.0981 5.18383 2.08902
14.8589 4.80614 1.90479
17.3046 5.64486 2.24959
13.774 4.5535 1.95181
15.0488 5.31869 2.17905
16.0748 5.24313 2.13259
13.9641 5.06452 2.16974
16.3787 5.54691 2.33659
16.2185 5.49357 2.2035
13.3679 5.17847 2.254
14.7955 6.11734 2.78447
15.6534 5.86761 2.6006
15.6945 5.38528 2.32302
19.2761 6.71059 2.88525
20.0935 6.83686 2.81206
14.8228 5.3854 2.48734
17.0185 6.2449 2.85872
14.2266 5.47632 2.5087
15.8485 5.42198 2.59844
14.0819 5.28629 2.42699
12.6789 5.12216 2.39382
15.7109 6.2222 2.79706
12.9159 4.55409 2.26876
13.8374 4.77232 2.21539
14.5175 5.5073 2.43365
12.2718 5.45526 2.68237
12.891 4.62506 2.29041
14.1709 5.43094 2.45805
10.6619 4.57862 2.24615
12.6385 4.62581 2.20429
13.8872 5.40777 2.66469
13.8984 5.38536 2.64537
14.9108 5.78099 2.91102
13.4219 5.63168 2.7402
14.9797 6.14474 3.04152
12.9055 5.26188 2.58171
12.6157 5.17542 2.54104
10.6751 4.43741 2.32548
9.82264 4.36708 2.21324
11.664 4.86231 2.40965
11.2707 5.06146 2.53322
13.3701 6.28073 3.37151
10.5723 4.5119 2.49425
17.3607 7.39229 3.78452
12.7785 5.08032 2.70336
11.1927 5.22512 2.82306
12.2433 5.07305 2.68954
11.4507 5.3208 2.65338
10.8759 4.59627 2.49968
10.355 4.85298 2.54851
12.5612 5.87214 3.34501
12.106 5.60309 3.02803
11.6555 4.72819 2.62883
10.7325 4.86137 2.7382
11.4875 5.24129 2.91447
11.7133 5.14727 2.85757
10.7731 4.87546 2.79499
12.7352 5.91671 3.36335
11.8278 5.54996 3.06452
10.6852 5.2589 3.0161
11.0185 4.82887 2.85235
12.2328 6.0825 3.52537
13.1786 6.77681 3.92548
12.3706 5.64979 3.46412
14.8082 7.05008 4.14248
10.6557 5.14213 2.89335
11.0409 5.1324 3.02851
11.3324 5.60972 3.38518
12.8041 5.94857 3.54409
11.4395 5.67873 3.28277
9.59727 5.20133 3.20904
11.6193 5.52796 3.21632
11.7603 6.13007 3.80618
12.0826 5.84116 3.48171
10.8174 6.33909 3.95371
11.9191 6.41722 3.88999
10.3267 5.09918 3.17548
10.7291 6.23822 3.90576
9.83902 4.65949 3.07125
8.99724 4.53671 2.83034
10.8501 5.91721 3.69897
12.1719 5.83397 3.59027
11.0419 6.29734 4.10292
10.2525 5.34659 3.61357
12.0491 6.28321 4.12199
8.91778 4.79852 2.91097
8.60984 4.42959 3.0671
11.6614 5.95219 3.66828
10.285 5.25913 3.43196
10.326 6.43897 4.35373
8.1654 4.5268 3.09057
10.7705 5.67959 3.85638
11.0613 6.11962 4.05157
8.80641 5.36045 3.79205
10.835 6.00602 4.07413
9.50295 5.08063 3.61194
8.80553 4.21148 2.92697
10.5693 6.5401 4.66346
10.0173 5.30078 3.66261
10.2997 5.77659 4.00625
10.416 6.27076 4.36811
9.92425 5.78818 4.10136
9.60297 5.46733 3.77066
10.0523 5.8622 4.0315
8.09699 5.19 3.67234
8.48837 5.41663 4.11474
9.50812 5.13015 3.63288
8.60183 4.77249 3.67774
10.0343 5.77957 3.90731
8.16321 5.09821 3.93288
8.81931 5.44294 4.14354
10.5733 5.83916 4.35611
8.23192 4.67809 3.69445
9.86391 5.47782 4.02821
8.14344 5.33831 4.17342
11.0585 7.23242 5.11601
10.0494 6.07958 4.79286
8.53255 5.29178 4.19711
7.90124 4.83286 3.97675
9.33668 5.40282 4.00853
7.99309 5.02088 3.82393
9.31864 5.33422 3.88011
8.46154 5.03041 3.7014
9.13806 6.00787 4.77829
8.56711 4.9367 3.83744
9.32301 5.51894 4.15827
7.73059 4.9301 3.97606
8.83411 5.43548 4.42633
9.08937 5.35575 4.40988
9.53942 6.33155 4.64269
10.1339 6.74617 5.21475
7.99708 5.8609 4.85173
6.66296 4.15311 3.62596
7.6019 5.70372 4.62013
8.34934 5.48679 4.54015
7.41896 4.40198 3.38247
8.63387 5.81515 4.90372
7.59913 4.89562 4.19195
8.92052 5.89914 4.63889
6.46723 4.66027 3.98825
8.99342 5.78645 4.65226
7.9358 5.51448 4.46582
6.65865 4.51479 3.85781
7.43826 4.84438 4.0502
10.6031 6.78847 5.71981
7.77761 5.05932 4.35304
6.74841 4.37598 3.53638
8.13064 5.88604 5.12556
8.28004 6.4076 6.06337
6.45771 5.42399 4.86622
7.51199 5.24834 4.67352
7.87595 5.20701 4.44927
8.64019 6.68625 5.90566
6.98958 4.70334 4.12887
7.84173 5.497 4.80254
7.45338 5.37998 5.07077
7.35004 5.42772 4.57573
7.12312 4.50284 4.03251
7.67829 5.60361 4.98644
8.42406 6.29529 5.34067
6.42527 4.82225 4.82542
7.08961 5.11935 4.63876
7.70951 5.69542 5.29384
7.93613 5.66655 5.08946
7.88385 6.05031 5.56445
6.80969 5.728 5.44659
8.8116 5.96297 5.44609
7.03784 5.23959 5.13924
6.38953 4.76911 4.76832
7.05339 4.99033 4.40785
7.19843 5.10543 4.83418
6.84512 5.37106 5.092
7.03596 5.77178 5.15287
7.06689 5.80545 5.41608
7.69339 5.49422 5.58273
6.98001 5.49294 5.22591
7.26281 4.98783 4.53657
6.70006 5.3664 5.10887
6.96741 5.52441 5.8404
6.81619 6.0098 6.45036
7.22507 6.05578 5.71806
6.615 5.38444 5.32343
5.44201 4.33469 4.36341
7.36249 5.9691 5.96296
7.48924 6.2891 6.945
8.5384 6.51655 5.58914
5.99883 5.28592 5.46983
7.5389 6.55705 6.53184
6.84296 5.5469 5.40116
5.55596 5.34858 5.31184
5.71671 5.24823 5.48567
6.19302 5.02752 5.25982
6.12184 4.70995 4.87752
5.46197 5.4839 6.33747
8.07284 6.30238 6.01255
7.15255 5.56094 5.77998
6.79237 5.41868 5.48951
6.94505 6.44662 6.714
6.35481 5.58139 5.83321
4.98196 5.26337 5.96875
6.67819 5.34301 5.74186
5.05048 4.42002 4.8318
6.37226 5.90064 5.97404
6.02671 5.50656 6.50921
6.3495 5.23367 5.38583
6.62724 5.98068 6.201
7.04448 6.15654 6.56162
5.08347 4.65884 5.21549
6.17878 4.94346 5.45975
6.35504 5.30294 5.9211
6.15444 6.05448 6.79837
6.26738 5.39938 5.71608
6.86145 5.31611 5.44397
5.74815 5.21959 5.90441
6.42538 5.97422 6.69487
5.90936 5.55681 5.84309
5.5417 5.47283 6.79521
5.58848 4.95802 5.51938
5.85782 4.98205 5.45176
5.45226 5.25296 6.06873
6.55849 6.382 7.62856
6.90293 6.51541 7.22992
5.87345 5.67981 6.95917
6.38575 4.86241 4.98753
5.94297 5.62021 6.95292
6.8933 5.96374 7.28362
6.12043 5.46833 5.76344
4.94258 4.6903 5.70895
6.55793 5.69521 6.74882
7.17242 6.84181 7.55958
5.13208 5.32537 6.93367
6.12348 5.63053 6.6786
5.28846 5.43383 6.27915
5.9338 5.82778 6.49286
5.23167 5.53085 7.11427
6.02906 5.42105 6.0259
6.61939 6.21885 7.55803
5.9983 5.38239 6.42047
5.25865 5.64192 7.19265
6.73869 6.99307 8.49409
5.44018 5.65389 7.11954
5.92516 5.79144 7.43581
5.68954 6.00187 7.10571
4.84099 5.15567 6.63509
5.71158 5.65951 7.26803
5.86447 4.94452 5.58185
4.97058 5.3384 7.28637
6.80218 6.96605 8.64879
5.56543 5.77526 6.895
5.40623 5.53792 6.60059
4.55683 4.90413 6.04002
4.68643 5.09208 6.49556
5.23142 5.71962 7.30098
5.33361 6.16208 7.83393
5.44474 6.01202 8.5896
7.00296 6.82699 7.69968
5.01637 5.60981 7.39933
5.01435 5.00438 6.95277
5.17543 5.98996 7.92926
4.95187 5.21106 7.06652
5.71974 5.1141 6.04186
4.89421 5.63327 7.82024
6.0009 5.76653 7.44544
6.45915 7.13975 8.65878
5.47563 5.60689 6.88104
3.95198 5.42068 6.92159
4.22141 5.43652 7.62439
5.15233 5.23996 6.86295
5.31737 5.43923 7.25477
4.57177 5.06184 7.2283
3.80915 4.73537 6.87798
5.47832 5.59898 8.02556
5.00949 5.51402 7.09452
4.79753 5.3206 6.58147
4.97827 5.72166 7.97038
5.15924 5.23249 6.49212
4.61627 6.05034 8.67169
5.77301 6.65834 9.28738
5.08759 5.98198 7.92904
5.03901 5.02892 6.79545
4.40544 4.49631 6.76331
5.64444 6.14049 7.37541
4.62501 5.65312 9.04876
5.79273 6.1699 8.32938
4.88242 5.46309 7.17772
5.27603 5.71346 8.82536
5.97222 7.03899 8.90531
4.30726 5.03685 6.77206
4.20189 4.95451 7.76085
4.57064 4.65954 6.31942
4.44841 4.78703 6.61677
4.27058 4.89907 7.63492
4.57556 4.69505 6.80091
4.99011 6.20907 8.53674
4.79844 6.78326 9.69876
3.96214 4.36788 6.81266
4.05218 4.49662 7.06477
4.82936 5.58486 8.00784
4.47367 5.6488 7.91936
4.28039 5.60045 8.55444
5.23526 5.98263 9.45069
4.63445 5.42073 7.23316
4.05579 4.88833 6.93934
3.67933 5.01995 8.38625
5.2165 5.61875 7.78956
4.46742 5.21915 8.08008
5.39746 6.89202 9.3879
4.70694 5.39348 8.49319
4.65962 5.78836 8.77951
4.30357 5.14793 7.81579
4.64076 5.87491 8.81176
4.24312 5.13412 8.43028
5.0094 5.8565 8.43992
4.61181 6.12448 8.69686
3.55775 4.68462 7.40177
3.67826 4.81556 7.79455
4.50674 5.61571 8.81965
5.02721 6.6202 9.49965
4.09616 5.04406 7.77946
3.96076 5.39509 9.26582
4.80346 6.04907 9.06826
4.33934 5.19962 8.20144
4.84438 6.01389 8.88386
4.22606 5.4845 9.10425
4.3922 5.60917 8.00825
4.52491 5.33209 8.90132
4.17339 5.83686 8.74045
3.53307 5.02868 8.51495
4.63671 6.35764 10.0781
4.53263 5.52567 8.40818
4.40814 5.90949 9.72651
4.21096 5.0264 7.67642
4.60928 6.87101 11.5218
4.07653 4.70806 8.17811
3.58966 5.08293 7.88075
3.909 5.00141 7.75744
3.84461 5.40471 9.25151
3.94082 4.63497 8.04581
4.48266 6.76609 11.3858
4.92757 6.24844 8.64925
3.89965 5.7038 9.46925
4.22839 5.94524 8.20852
3.28355 4.83381 7.89411
4.43109 5.81085 8.68136
4.04165 6.33642 10.7747
5.27044 7.39989 11.5988
3.77832 6.25279 11.657
4.54951 5.57443 9.06077
3.83804 6.18672 11.2108
4.27116 5.65127 9.86541
4.43871 6.27935 10.2279
4.19679 5.11204 9.26462
5.53955 7.93688 12.241
3.45647 4.66449 8.72366
4.52858 6.41878 9.75198
4.06973 5.57752 9.518
3.4391 4.83938 8.4336
4.56775 6.06386 10.8704
3.91414 5.47157 8.20306
3.44145 5.3276 9.89707
4.37222 6.80038 11.2149
3.39049 4.67018 9.13621
3.88268 5.39955 8.50407
3.29403 4.98339 8.6015
3.63048 5.40968 9.26981
3.01298 4.93011 9.28325
2.93984 4.5179 8.65243
3.61887 4.52562 7.18207
3.88768 5.49011 9.76742
4.41155 6.77898 11.6731
4.113 6.22925 10.5063
3.76916 5.70534 9.95175
4.80505 6.83115 11.4594
3.93743 6.1934 11.2108
3.16634 4.19647 7.82984
3.59195 5.37951 10.0405
4.50347 5.81664 9.7131
3.23896 4.56776 8.3799
4.17865 6.09302 10.5412
4.05569 6.23603 10.2534
3.51025 5.90156 11.4313
4.06805 6.17405 11.5006
3.6807 4.62011 8.04128
3.36777 5.71764 10.8501
3.59367 5.14598 9.92555
3.771 5.45366 9.0915
3.64975 6.55792 12.4905
4.06836 6.81363 13.1711
4.09589 5.90454 11.0294
3.74062 6.1703 12.1946
4.16074 5.85876 10.2918
3.7827 5.7132 10.4909
3.47457 5.12821 9.86415
3.47434 5.16813 8.83116
3.39297 5.62958 10.9819
3.12553 5.10382 10.5217
3.56507 5.4004 9.9753
3.54061 6.23127 12.3164
4.17694 6.51742 12.4292
4.46227 6.09841 9.51103
3.31282 5.49813 11.0209
3.85096 6.4231 11.7276
3.75163 5.49344 10.7176
3.8204 5.94861 11.5614
3.02143 4.83798 9.7267
3.5671 5.25441 10.7452
3.39116 5.46645 11.5297
4.8592 6.94467 13.0893
4.19148 6.63208 11.9936
3.72642 6.37735 11.904
3.59464 5.32031 9.73834
3.55019 5.63942 11.1987
3.34308 5.95989 12.5358
3.58188 6.04117 11.5243
3.65972 5.83428 12.2856
4.1298 7.98324 18.19
4.95838 6.5158 11.6333
4.5827 7.69726 13.8213
3.91581 5.91225 12.2675
3.84825 6.16034 11.0733
3.64343 6.05273 10.3474
2.54005 4.65847 10.1303
3.49522 5.98838 12.2438
3.64823 4.73613 9.32549
3.52021 6.25523 12.0457
3.2296 5.38924 11.6543
3.79732 5.73428 10.3885
3.60172 5.8896 12.0657
3.48956 6.12742 13.0501
3.86693 5.96286 12.2285
3.69449 5.48216 9.86938
3.33927 6.40108 12.753
3.57578 6.46282 13.4144
3.92755 6.83293 13.412
3.33667 5.3425 10.784
3.45509 6.36405 13.493
3.1173 4.78374 10.1558
3.29006 4.61266 9.44571
3.27294 5.92695 13.0216
4.69925 7.29298 13.936
3.3374 6.05239 13.3986
3.2329 5.32743 11.9831
4.00285 5.49188 11.0153
3.48143 6.24951 13.1171
3.63635 5.75858 12.6728
3.46691 5.89559 11.7856
3.39442 5.41241 11.0631
3.21033 5.42195 11.2235
3.4591 5.64267 12.0089
3.43616 5.2095 10.7761
3.07332 5.53295 12.3753
3.77526 6.31658 14.298
4.07147 6.73899 12.8537
2.72356 4.46146 9.63324
2.99534 4.97523 11.029
3.32046 5.52164 11.3929
2.80393 5.60924 11.9624
3.19533 5.09562 11.1917
3.50644 6.55265 13.7307
3.11939 5.3129 12.5964
3.39126 5.68819 11.2226
3.22293 5.59526 11.2912
3.19857 6.41469 13.6324
3.37751 5.89483 14.5099
3.87487 6.84431 16.4055
4.25484 6.67184 12.8219
3.76112 6.65968 13.6333
2.95461 5.15349 12.2069
3.64264 6.93062 14.3831
3.40844 6.34178 13.7146
3.17568 5.79396 12.2497
2.95805 5.56506 11.7559
3.00203 6.26386 13.8756
2.96294 6.23075 14.1841
3.47812 6.68944 13.6869
2.90305 5.78784 13.6562
3.2118 5.57781 11.8237
2.9402 6.23351 14.6491
3.55065 5.26252 10.905
2.66709 6.03092 14.9404
3.41305 6.19176 13.8282
3.67488 7.37597 16.5248
3.6403 6.67458 14.6089
3.50813 6.24137 13.4687
3.02373 6.27861 14.7241
3.0852 6.6743 14.6714
3.31646 5.82107 13.3742
3.33832 5.87362 12.4983
3.16424 6.62847 15.1253
3.0938 6.33338 14.6285
2.73652 6.25466 13.9119
3.02035 5.47262 11.6434
2.39387 4.72841 13.2559
3.20266 5.252 10.3265
2.38908 5.08316 12.953
3.27294 5.90233 13.0645
3.01462 5.4124 12.6055
2.90541 6.08756 14.0969
3.11538 6.14747 14.6208
3.23364 7.15909 17.333
3.29847 5.69849 14.1711
3.73268 7.20296 16.5353
3.56028 5.96809 12.8382
2.81399 5.47035 13.7545
3.12954 5.97811 13.6759
3.01202 6.42563 15.7018
3.11716 5.52604 13.2387
3.10033 6.2665 16.557
3.16246 6.17247 15.4651
3.82307 6.71782 13.7155
2.78783 5.07886 12.2206
3.04572 6.37278 14.8297
3.40012 7.24838 16.0116
3.18836 5.89933 14.3995
3.41756 7.12798 16.9828
2.97239 5.97113 13.6202
3.05227 6.73575 15.1674
2.6744 5.77977 14.4267
3.03875 5.62593 14.0906
3.01212 5.7994 14.2244
3.20701 6.33141 14.3847
3.42047 6.08941 13.6468
2.62652 5.82578 16.5265
3.73229 7.00615 15.319
2.67461 6.1004 16.0819
2.85228 6.14647 14.1462
3.10205 6.15728 13.6956
3.00793 7.13673 17.9802
2.83024 5.20288 12.8388
2.73263 6.47351 15.7406
2.91937 5.63154 15.2675
3.32603 6.68934 16.8729
2.89261 5.80292 14.9498
3.2644 6.35063 14.3079
2.56002 4.68765 11.9898
3.08625 5.70156 13.9971
2.98498 5.90316 14.2881
2.92724 6.11589 15.4315
3.22128 5.54444 12.224
2.56516 5.54007 15.426
2.95787 6.97626 17.7311
2.9249 4.77704 11.2563
2.60776 5.63048 15.1157
3.10987 5.56778 12.3603
2.62028 5.89586 13.9279
2.29745 6.06073 15.2872
2.75921 5.55184 15.2723
2.85998 5.57667 14.401
3.04123 6.94299 15.7
2.28943 4.74376 14.1487
3.07986 6.50547 14.9659
2.37306 5.4846 13.3418
2.65602 5.87053 14.8784
2.47576 5.13583 13.2377
2.85543 6.75781 16.4061
2.81104 5.73421 14.7432
2.77205 6.33162 17.7394
3.14135 6.06979 15.03
2.57834 5.78205 15.6021
3.15907 5.68988 15.2999
2.29146 5.23752 14.9811
3.09097 6.59068 15.5827
2.80125 5.71289 15.2191
2.8976 5.35153 14.3919
2.9297 7.189 18.7689
3.26754 5.594 13.0895
2.41245 6.4882 18.9848
3.39126 6.44282 16.1
3.02728 5.78865 14.5952
2.83092 5.35797 14.0314
2.6979 5.56421 14.97
2.55301 4.81607 12.906
2.50007 5.39007 12.3486
2.43526 6.0577 16.2456
2.8802 5.89197 16.1164
3.05638 6.13306 14.7599
2.66401 6.48312 16.9715
2.99094 5.99638 14.6165
2.84649 6.66636 16.235
2.21318 5.87029 17.3418
2.29497 4.79778 15.9379
3.06549 7.14765 17.688
2.50666 5.11767 13.7332
2.60106 6.7485 20.0169
2.83852 5.86115 14.0838
2.25978 4.93694 13.6159
2.46288 6.8785 18.8729
2.52887 4.89094 14.1792
2.39043 5.30877 13.699
2.45966 6.09798 18.4347
3.42684 8.03138 19.9794
3.05138 5.54765 14.3652
2.52743 6.76144 20.0627
3.05221 6.30145 17.1132
2.97439 5.93395 13.4456
2.21689 4.9294 15.9469
3.03463 6.9814 18.3825
2.82278 6.01257 14.9082
2.54198 6.54728 18.2099
2.52291 5.59444 15.8254
2.78283 5.86348 15.8921
2.52312 6.18807 17.8886
3.25531 6.52275 17.2141
2.6079 5.89397 16.4045
2.46341 6.08539 16.9894
2.984 6.60214 16.8479
2.57133 6.38398 16.0101
2.17377 5.27188 13.0201
2.15223 6.45486 19.6824
2.68909 5.92745 16.742
2.79152 5.74543 13.965
2.49946 6.668 21.2843
3.05246 6.98047 19.5679
3.24357 7.45533 20.2203
2.79982 6.33762 16.4821
2.5485 6.14357 18.608
2.87035 6.77783 18.2125
2.08109 4.91864 17.8716
3.07809 6.32931 17.2871
2.86429 6.23209 15.665
2.48689 5.62784 17.252
2.46924 5.96345 17.049
2.70136 5.63851 13.5627
1.88411 4.91317 16.0005
2.53175 5.58397 16.3482
2.59405 6.48035 16.8544
2.48683 5.68727 16.174
2.4765 5.24394 16.109
2.40963 6.26419 19.5182
2.3304 5.80764 17.7654
2.94617 6.66945 17.2549
2.67166 5.65121 15.9688
2.54554 6.38599 18.5149
2.78748 5.78337 15.4158
2.44987 5.92705 18.7761
2.62088 5.86872 19.0361
2.90384 6.7057 16.6014
2.5428 6.30993 17.9986
2.71904 5.71754 14.9187
1.92154 5.21455 16.7619
2.50552 5.22117 16.2264
2.41934 6.04474 18.0295
2.77829 5.94056 17.579
2.72916 6.52795 18.3133
2.58619 5.72103 17.6785
2.51379 5.30654 16.9011
2.71417 6.56346 18.4759
2.48311 5.62949 17.0604
2.46174 5.92197 18.4581
3.13107 7.88712 19.7391
2.76999 6.68924 17.8482
2.39816 6.41031 18.8105
2.283 5.66485 17.4419
2.23807 5.93579 17.9932
2.39345 5.73957 18.8246
2.66679 6.98462 20.2138
2.86838 6.74143 20.5658
2.7342 6.69756 20.7238
2.74948 6.36182 19.5531
2.89032 6.72779 17.6209
2.28284 6.03619 18.0222
2.52534 5.93634 15.7151
2.16872 5.82311 16.8221
2.32847 5.66859 18.9842
2.39861 5.44502 17.7202
2.24161 5.62429 16.6716
2.40385 5.27674 15.0705
1.9713 5.39986 16.5257
2.35246 5.64721 16.5014
2.25349 6.67275 20.5127
2.42168 5.80423 18.078
2.24443 5.06991 13.3126
2.23266 7.26154 24.9492
2.84334 5.46308 14.1688
2.33607 5.59688 19.5837
2.61826 7.36448 18.6827
1.98794 5.47912 17.1368
2.60058 6.73661 18.6213
1.9023 4.83747 16.0804
2.06159 5.50962 17.9656
2.72016 7.09771 22.4115
2.61445 6.82668 22.328
2.24333 4.91506 14.601
2.16161 5.79683 17.5633
2.40662 5.84842 19.2103
2.31993 6.39763 18.9626
2.13636 5.34926 17.9476
2.12995 6.15104 18.2096
2.46916 5.77176 16.2696
1.97561 4.90531 17.9538
2.48671 6.12762 16.4306
2.05941 5.06974 13.8964
1.8405 6.10103 20.6193
2.73496 6.66945 18.2173
2.07373 5.3707 18.1515
2.13999 5.97399 17.2748
1.98167 5.46935 16.2103
2.27244 6.02017 18.4499
1.72512 5.06053 19.6547
2.61005 6.06896 20.2915
2.64029 7.36723 18.8821
2.15095 6.50336 25.4367
2.85078 5.63172 15.0079
1.88317 5.18938 20.2549
3.1215 6.83372 16.7082
2.21365 6.91985 22.5624
2.45484 5.43338 16.3396
2.31892 7.15087 19.9035
2.23223 5.98255 20.6829
2.35041 6.80095 21.2709
2.15795 5.62945 20.9648
2.81271 7.12498 19.9065
2.61138 6.25359 18.1244
1.96923 5.9451 19.0785
2.14681 6.40659 22.3996
2.17866 5.5009 22.9112
2.60852 6.09554 18.3689
2.20308 6.43897 20.6758
2.73312 7.94615 26.0222
3.11414 8.61296 24.8692
2.29578 6.06611 18.2243
1.96269 4.90582 17.9536
2.48749 5.84575 18.1476
2.37903 6.95146 22.6299
2.26865 5.80074 19.1245
1.9627 5.40927 19.2579
2.51443 6.00308 17.5556
2.41056 7.22507 21.7853
2.46251 6.57412 17.826
1.74498 5.01238 19.8619
2.29336 5.9744 18.3567
2.04449 5.23217 19.1115
2.3351 5.92405 19.0044
2.44107 7.52074 22.8946
2.14953 6.01091 16.4263
1.81808 6.00527 21.1083
2.22892 4.90932 16.7837
2.16075 6.91484 20.8115
2.22325 6.06359 20.3931
2.27846 5.84735 20.155
2.27902 5.65017 19.3333
2.33355 6.32431 19.6488
2.00052 5.35179 18.3488
2.19543 6.29184 22.2508
2.41662 5.86376 17.1303
1.95864 5.50601 20.3251
2.38682 6.34221 22.2679
2.71281 6.57026 18.8518
1.86238 5.30632 18.1027
2.23005 6.40837 21.9964
2.45831 6.56652 20.9487
2.47308 7.74742 25.5689
2.76592 7.89184 25.6858
2.56903 6.68121 21.0278
2.10929 6.755 23.9637
2.44057 6.18036 18.5532
2.34315 7.58929 22.3147
2.09379 6.15862 22.7189
2.21425 5.80791 20.3074
2.097 4.80161 19.6957
2.20668 5.52181 18.7681
2.22401 5.94872 19.7888
2.09869 6.61621 19.0085
1.92348 6.03209 18.3459
1.92571 6.95079 25.4417
2.60039 4.75694 16.3448
1.89271 6.44356 21.5558
2.06747 5.38095 19.277
2.21432 6.18193 20.2328
2.00422 5.34823 16.51
1.85333 6.17496 21.8576
2.18898 5.86763 18.3133
1.68406 5.44535 24.339
2.627 7.22283 23.6573
2.50022 7.37013 22.8295
2.15574 5.89881 20.5901
2.06674 5.78639 18.1936
2.16379 6.64143 22.2919
2.11231 6.11118 21.8294
2.34811 5.67673 20.0161
2.22562 5.94409 20.4906
2.2916 4.66703 17.8673
2.38153 8.42361 25.5825
2.24155 6.28117 19.9824
2.36985 6.67725 22.0765
2.19471 6.59846 22.308
2.34721 5.56413 19.4809
2.03726 5.14509 18.3155
2.24464 6.87219 21.6447
2.3433 6.63642 22.9081
2.27833 5.99058 22.3277
2.35997 6.65636 20.7608
1.7779 5.20308 17.4533
1.98748 6.05448 21.8636
2.31053 6.51323 25.204
2.57585 5.79267 20.6195
2.35363 6.46555 17.94
1.97684 6.25954 21.6983
2.16964 6.2453 21.3145
2.08319 5.7669 21.9199
2.13484 5.76415 20.5028
2.14478 6.62776 22.1076
2.19473 5.81142 17.8359
2.01054 6.15794 21.4586
2.02341 6.83883 21.3819
1.77102 5.34371 22.7723
2.38412 6.73194 22.5296
2.1328 5.75512 21.5598
2.27076 6.56052 22.3736
2.11851 7.05611 23.7857
2.08199 5.3205 19.0635
1.87574 6.38562 23.5646
2.2674 6.7636 25.6985
2.73525 6.6154 20.7639
1.90055 5.82216 22.5878
2.06438 5.64437 22.0146
2.00528 5.75743 20.0041
1.88783 5.5927 23.0966
2.3571 5.92008 20.1204
2.20451 5.9777 20.5617
2.1964 6.84842 21.0352
2.21086 7.02734 23.9184
1.94258 5.0849 20.6695
2.23998 6.85872 23.5006
2.45356 6.99434 24.4769
2.57152 7.65494 22.4826
2.08082 6.11345 19.4584
1.99442 6.13671 21.5059
1.81982 5.44891 20.7947
2.14095 5.5895 20.9712
2.20959 5.94418 22.3554
2.05587 6.35432 18.7423
1.8587 5.1817 19.8043
2.02417 5.31837 16.7843
1.71907 4.86647 20.4277
2.20745 6.19854 20.6438
2.02403 5.98497 20.2408
1.9014 5.38301 19.9777
2.03414 6.7937 19.7125
1.90569 6.11751 21.1151
1.76786 4.55082 19.9268
1.93068 6.75218 27.8527
2.47504 5.84239 18.0013
1.7903 5.62122 21.2077
1.81761 6.30659 21.9488
2.39087 7.67844 24.8626
1.90641 6.08789 26.3853
2.35354 6.4211 25.2967
2.54901 5.94419 21.6256
2.22444 7.55625 24.6261
2.05858 5.79304 20.2093
2.15506 6.06295 22.144
2.11506 6.36863 24.9244
2.17251 5.50511 20.5207
2.10168 7.63301 26.2229
2.23325 6.23483 21.2552
1.74248 5.76335 23.8713
2.37683 6.73391 20.577
1.84292 7.05438 28.5846
2.64599 6.6488 22.6613
1.92855 6.83698 25.7937
2.17493 5.95064 23.0362
2.1919 6.72261 23.1033
2.30193 6.94303 26.2666
2.20768 7.28128 21.2865
1.73701 5.29488 22.3108
2.13302 6.48278 23.0727
2.01468 6.00449 22.7211
2.12015 6.00473 19.4139
1.82937 6.06845 21.9268
2.03627 6.1572 24.3408
2.16569 6.16025 26.5413
2.13338 7.35986 23.6996
2.22149 6.38921 23.3271
2.33446 6.84953 24.5072
2.26071 7.06788 22.8213
2.06406 5.9527 22.7507
2.21319 6.17092 21.4784
1.88846 5.12297 21.9583
1.9584 6.43219 19.5485
1.82386 5.89018 25.8528
2.53613 6.49814 24.9699
2.30594 6.13011 21.5746
1.85321 7.16863 25.9026
2.05139 5.8334 20.7756
1.77575 5.45486 21.5513
2.0191 6.50909 19.253
1.53603 4.9082 26.1283
2.58227 7.31265 24.3402
2.29226 6.84736 25.7526
2.31716 6.07393 20.7061
1.80708 6.28636 22.9313
1.90509 6.17019 25.4907
2.29222 6.30485 21.2746
1.83231 5.48328 18.3754
1.6503 5.55783 23.7084
2.08981 6.12961 21.3989
1.99595 6.1302 25.2373
1.98839 6.96214 25.625
2.42811 6.65175 23.3831
2.13028 7.49219 23.979
2.06058 5.72214 20.757
1.95222 5.8273 24.4705
2.03445 4.9157 19.0023
1.87008 6.50089 25.2112
2.43283 6.34356 22.7687
1.93707 6.51321 25.5611
1.93437 5.43769 23.7248
2.07221 7.63073 24.5426
2.26193 6.18424 23.6957
1.92628 5.96339 19.7554
1.7384 6.35774 25.2945
1.94489 7.5152 27.6731
2.25037 5.43996 22.1725
1.98555 6.03856 19.0748
1.60386 5.14254 22.4705
2.06896 6.24011 21.7891
1.65847 5.18331 20.6242
1.93008 7.42497 28.2316
2.21072 6.23479 20.6751
1.72752 6.1455 24.3821
2.24124 7.08867 22.9959
1.6896 5.921 24.9315
2.16267 6.30978 27.4953
1.99406 4.99052 18.5967
1.80934 5.45533 19.3686
1.66458 5.72685 25.9655
2.2263 6.72799 20.2661
1.72351 6.25043 22.2311
1.7512 6.82169 23.5476
1.68981 6.08563 21.7952
1.69331 4.29083 18.7038
1.83845 5.91497 23.5227
1.93141 5.98463 23.4095
2.13578 7.29879 22.0925
1.78943 6.27161 27.3326
2.22076 6.17314 23.8935
1.93024 6.42392 25.7203
2.1055 5.94698 19.782
1.70518 6.30156 25.9913
1.99667 5.83181 21.8046
1.97064 5.34867 20.3904
1.67467 5.8305 24.3809
1.89764 6.61871 26.7336
2.39744 6.81315 22.7517
1.86643 6.56222 23.0951
1.95981 6.61438 24.1874
2.02396 6.30566 22.4053
1.90477 5.50376 20.9753
1.72455 5.49685 22.9076
1.87281 5.46735 21.5223
2.09306 6.74557 23.1312
1.75635 5.83873 20.9619
1.73625 6.28944 24.1137
1.8919 6.2008 27.3783
2.04246 5.9204 27.3265
2.39841 6.17181 22.9419
1.93691 6.19461 23.0898
1.81462 6.65765 22.5216
1.80773 5.2011 25.1917
1.99342 5.06701 18.7603
1.45853 5.75425 23.8577
1.71215 4.93783 24.9465
2.23292 6.44405 22.7237
1.84603 6.66896 21.8234
1.73741 4.81564 21.4837
1.83024 6.96507 25.1785
1.84879 5.6063 23.8333
1.97235 5.10321 20.6719
1.63456 5.81935 18.9729
1.57896 5.37148 21.6874
1.55974 5.15086 22.8207
1.69445 6.27448 25.6072
2.07395 6.87503 25.8876
2.07326 5.98066 26.103
2.13811 6.45049 20.325
1.51076 5.28392 20.2791
1.8305 4.99745 20.1384
1.88177 7.65141 26.3739
1.74046 6.67317 29.0258
2.06196 5.8241 21.7965
1.78946 5.91577 24.7855
1.79671 5.06697 20.2194
1.72062 6.12842 23.2782
1.95941 6.27907 22.8001
1.76528 5.47836 20.7294
1.6156 6.1874 21.4897
1.4738 5.20352 18.4184
1.64671 5.79367 25.5014
1.96823 5.87386 24.3909
2.29 6.82699 25.6455
2.10429 7.57167 25.4544
1.76958 6.12228 25.0392
1.91099 6.412 27.167
2.26249 6.71364 23.8419
1.74886 5.20066 26.1155
2.25175 7.37986 27.503
2.13614 6.21957 24.1635
1.96773 6.43812 22.4654
1.59698 6.45034 26.6814
2.11685 7.16815 28.196
2.03686 5.80484 23.5037
1.72601 5.61453 20.3978
1.86228 5.91893 22.5112
1.93701 6.33341 18.8599
1.34016 5.40262 27.5096
2.09311 6.23884 25.2364
2.08756 6.07836 25.3725
2.10375 6.27387 25.2223
2.13673 7.22897 26.1296
1.9206 7.48255 28.9246
2.16968 5.25262 21.8897
2.06592 6.60602 26.6705
2.03657 6.10252 22.7671
1.9248 6.16789 22.6226
1.75426 5.1485 24.2148
1.89112 7.17348 24.2482
1.72236 6.90209 28.4018
2.25728 6.99601 24.9444
2.1378 5.86726 21.7545
1.63242 5.9298 23.2036
1.69668 6.61479 28.9653
2.16479 6.52057 23.3819
1.94144 5.41036 22.6916
2.08846 6.87329 27.9111
2.23617 7.72921 27.9678
2.02778 6.19703 21.9191
1.59556 5.49457 24.9715
1.72155 5.58344 23.7391
1.91799 7.39648 28.171
2.08154 6.21915 21.9856
1.8332 6.65878 26.2371
2.08795 6.04253 27.2653
2.11235 6.5998 26.8543
1.96457 6.67042 24.1406
1.69337 4.77323 18.2007
1.59069 6.10559 24.2352
1.82468 6.72881 26.8979
2.00062 5.37742 26.2443
2.19409 7.0331 22.2763
1.62619 5.56823 25.9157
1.88473 6.50234 20.2817
1.60171 5.62664 22.0978
1.76974 5.11774 23.857
1.89113 6.12161 22.6159
1.78721 7.69246 26.9617
2.01838 5.38687 23.4683
1.65798 5.2454 19.7243
1.46426 4.9283 23.2917
1.67603 7.14547 24.7584
1.86347 6.07914 25.1922
1.79866 6.71747 27.8549
2.00387 6.00082 27.568
2.07913 6.91399 25.7176
2.04314 5.97076 25.3561
1.82568 6.20817 29.3589
2.12063 5.60756 28.6126
2.18956 8.13514 27.3496
2.11731 6.37732 26.2696
2.03539 6.81726 24.1085
1.82683 6.62194 28.6394
2.26068 7.27143 23.8131
1.86519 6.79646 28.0559
2.01457 5.83681 21.6443
1.69 7.37945 31.8481
2.31682 6.5379 26.2351
1.8544 6.59726 24.1676
1.82835 6.0587 26.0421
1.92289 5.8194 21.9578
1.75936 5.7321 21.5465
1.80026 6.42101 23.6035
1.94667 7.02992 31.8691
2.37134 8.18947 27.0471
2.00604 5.30815 15.2336
1.297 4.85193 24.7861
1.79347 5.95917 23.5241
1.85199 7.14557 23.6334
1.90224 6.8385 28.9166
1.98555 6.65556 25.8601
1.75089 5.44491 24.8182
1.82134 7.06852 28.7717
2.21017 6.89035 26.7612
1.91541 6.70389 25.3618
1.67523 5.39861 25.339
1.92244 6.99957 23.4975
1.8362 7.11597 29.5253
2.12104 5.29109 22.2373
1.62001 5.1586 21.3011
1.71726 5.10767 23.721
1.99527 6.21407 24.5255
2.05888 6.65378 21.7637
1.93746 6.41084 26.511
2.14879 6.10296 23.5109
1.82663 5.97143 23.3661
1.88337 5.89831 22.3108
1.85396 6.10721 23.3688
1.56503 5.89437 26.7075
1.98249 7.28689 24.799
1.63917 6.04466 22.9549
1.73075 6.22587 23.8561
1.73666 5.82173 19.3262
1.54344 5.65455 28.452
2.12005 6.57894 22.6269
1.5471 6.37721 27.4785
2.24768 6.69221 29.5441
2.10991 7.20208 27.6965
2.0354 6.85937 28.3259
2.13838 6.42801 25.9733
1.97862 6.44927 23.3626
1.79278 5.27948 23.8848
1.91851 6.47296 29.8834
2.31729 6.98977 28.9345
2.11376 6.69585 20.8457
1.60798 7.08959 27.0391
1.88962 6.40878 25.7711
2.04923 6.38219 25.6164
1.9516 7.24022 24.5006
1.84947 5.91731 25.9184
1.90275 5.84627 24.7328
1.78071 6.16502 24.5176
1.6922 6.23239 22.6421
1.8541 6.41638 28.9942
2.09222 7.49036 28.4545
1.84609 6.24397 26.4338
1.99491 7.5857 24.2351
1.91106 5.67649 29.59
2.44353 6.64309 26.742
1.82986 7.35302 23.9335
2.04259 6.14891 30.7852
2.2688 6.70823 28.2796
2.11645 7.11115 24.1787
1.74318 8.41748 31.6571
2.59704 6.36763 24.844
1.67997 6.11088 26.6499
2.09195 6.50993 25.6751
2.15687 7.92677 32.2914
2.45938 7.202 26.1535
2.01455 7.03018 29.8435
2.2652 7.48105 27.0474
1.92327 7.29483 33.8054
2.3813 8.24917 28.205
2.14066 5.9792 28.3569
2.03114 7.54577 28.0324
2.06581 6.91306 27.8114
2.07296 0 0