# pn-170911/RbIIF-66-RbIIA-1280-1959.psd
# Power spectrum* (dif=0,1,2) (really just |FT|^2)
# NOTE: only the first half! (symmetric)
# weeks: 1280-1959
# 944 clock-days, 33 excluded
# PSD: 1441
6705.53 0.17963 0.00914755
269181 3.21753 0.0045979
1.66079e+06 36.269 0.00531245
178871 6.22083 0.00477053
128959 8.87003 0.00532782
62694.3 5.79369 0.00527604
44401.3 6.22926 0.00549152
31206.5 5.73611 0.00586221
24691.2 6.05282 0.00636616
18461.1 5.59329 0.0069047
14724.9 5.56917 0.00737349
12421.8 5.51693 0.00741324
11097.7 5.75216 0.00830333
8558.36 5.35576 0.00879167
7930.48 5.7219 0.00997736
6720.9 5.38318 0.0106182
6096.45 5.67864 0.0119361
5198.2 5.66843 0.0121438
4762.04 5.54006 0.013067
4289.36 5.60049 0.0142672
3924.92 5.76822 0.0150819
3490.9 5.45173 0.0155026
3307.43 6.2027 0.0189616
2785 5.22745 0.0185425
2680.74 5.52333 0.0196759
2589.37 5.80082 0.0222171
2210.24 5.25539 0.0206575
1928.67 5.14589 0.0225299
1912.14 5.43697 0.0253551
1890.03 5.73605 0.0276391
1578.94 4.97356 0.0257498
1528.81 5.57881 0.0306103
1510.18 5.58238 0.0319496
1373.55 5.62798 0.0324513
1248.76 5.21548 0.0338194
1209.42 5.25533 0.0354689
1194.53 5.7897 0.0411213
1112.51 5.66975 0.0421907
1041.22 5.51875 0.0414522
1053.02 5.75624 0.0470695
922.675 5.36822 0.045853
854.688 5.13027 0.0449897
870.957 5.65826 0.052259
789.835 5.29068 0.0509839
746.798 5.13633 0.0516302
754.71 5.37724 0.0553844
698.818 5.32143 0.057468
691.559 5.45008 0.060952
668.562 5.46052 0.0645677
618.085 5.31845 0.0645777
601.401 5.32603 0.0676592
571.097 5.46254 0.0721551
540.564 5.27807 0.0728228
546.804 5.57473 0.0793285
559.843 5.79766 0.0866785
539.217 5.86495 0.0881482
474.995 5.3541 0.084466
478.624 5.66659 0.0917489
461.119 5.49098 0.0933068
444.332 5.76901 0.100649
418.946 5.4077 0.0966186
415.616 5.74394 0.104878
393.426 5.49544 0.105237
384.149 5.32165 0.105323
377.961 5.50027 0.113198
344.048 5.51376 0.115695
347.261 5.25659 0.112864
340.925 5.56154 0.121806
317.673 5.55072 0.125541
313.211 5.65426 0.132545
305.403 5.4153 0.130573
303.544 5.33427 0.132773
278.869 5.34495 0.13865
264.724 5.20432 0.136861
285.143 5.68609 0.153231
277.839 5.63569 0.154469
262.875 5.46008 0.154685
248.074 5.41399 0.15551
232.466 5.25319 0.155976
255.034 5.6051 0.171257
236.502 5.44863 0.169811
229.583 5.35746 0.171692
226.28 5.40614 0.17837
212.877 5.43888 0.183023
205.049 5.26399 0.179944
208.936 5.34621 0.188411
207.511 5.59674 0.198131
194.477 5.39468 0.20059
193.487 5.39973 0.204561
187.892 5.47113 0.209684
193.37 5.58805 0.219241
171.905 5.22087 0.212762
177.402 5.45736 0.225754
175.296 5.60187 0.234544
172.437 5.44768 0.233995
176.255 5.85617 0.254446
163.322 5.43006 0.244341
173.825 5.86925 0.266427
157.088 5.42278 0.250627
151.212 5.24163 0.248137
151.062 5.51878 0.270394
156.51 5.64746 0.277536
146.362 5.57801 0.280171
146.113 5.33915 0.274773
143.885 5.45864 0.287599
140.003 5.62019 0.302436
145.2 5.78954 0.312401
129.515 5.44611 0.29884
133.134 5.47727 0.307855
129.666 5.47744 0.311911
123.493 5.36525 0.312747
121.28 5.43477 0.323694
120.909 5.4912 0.328567
113.293 5.21889 0.319946
110.731 5.2026 0.327611
113.54 5.59291 0.354768
108.307 5.27188 0.338755
106.592 5.28586 0.342742
104.224 5.29022 0.348425
111.734 5.68728 0.392682
103.154 5.32643 0.365646
107.236 5.55066 0.390951
104.775 5.8117 0.413658
98.3526 5.51449 0.395593
94.5378 5.2509 0.384236
92.5456 5.23944 0.39462
99.7429 5.59037 0.423948
92.6596 5.40836 0.417871
89.2367 5.20632 0.406684
91.5407 5.50145 0.434878
86.0965 5.38324 0.437787
91.0126 5.58236 0.454568
83.1423 5.25452 0.435712
83.8126 5.51467 0.4701
82.035 5.21455 0.444675
81.0322 5.23293 0.459479
79.7478 5.33146 0.469114
79.4925 5.36196 0.481454
78.6288 5.39893 0.487198
77.8405 5.49633 0.512943
80.01 5.63528 0.525114
75.0976 5.42181 0.515948
71.8318 5.26773 0.504125
68.7239 5.14563 0.503041
71.4989 5.511 0.537832
72.8958 5.48605 0.547652
71.9853 5.47953 0.556287
72.0028 5.50467 0.564657
65.6379 5.41608 0.562217
67.1651 5.43399 0.57401
74.0003 6.07044 0.643297
66.87 5.35231 0.576865
64.5851 5.77915 0.637611
70.1764 5.96165 0.661232
64.17 5.43576 0.611929
60.7607 5.41553 0.615722
61.8424 5.43803 0.629471
61.835 5.75519 0.66653
64.3794 5.747 0.686811
58.6818 5.42928 0.660032
62.6479 5.87119 0.714663
58.9949 5.67885 0.700366
60.1964 5.86818 0.732572
57.0262 5.41022 0.68361
54.8261 5.30868 0.677498
56.7444 5.37205 0.684394
54.2571 5.69476 0.741345
51.5663 5.14352 0.685723
53.599 5.6988 0.760204
52.744 5.51873 0.750627
52.7983 5.54736 0.763228
52.8319 5.63527 0.77204
50.4645 5.49704 0.763342
49.9651 5.35314 0.761227
48.6472 5.31993 0.768318
50.355 5.44731 0.784377
47.8003 5.46479 0.791194
49.3656 5.53142 0.812176
47.4487 5.41488 0.816872
48.021 5.59677 0.845352
49.2465 5.78228 0.888419
45.9117 5.3134 0.822778
46.1203 5.30836 0.840712
46.9369 5.62909 0.882924
45.6319 5.35553 0.857395
43.7641 5.41613 0.874053
44.2563 5.32295 0.877296
44.274 5.52551 0.897413
43.9318 5.46895 0.919177
45.2785 5.70255 0.952035
43.0555 5.56413 0.950157
41.4358 5.38197 0.923922
42.6705 5.52853 0.967082
40.5914 5.29836 0.929451
42.1125 5.47484 0.969513
42.6047 5.96895 1.07226
40.1268 5.36202 0.975426
41.7836 5.90047 1.07437
41.0751 5.57466 1.04171
37.6354 5.10527 0.957187
40.0704 5.63961 1.05442
38.8779 5.7157 1.08617
38.0586 5.36832 1.02655
36.8188 5.44547 1.05811
38.7427 5.70054 1.12552
37.2212 5.66719 1.1124
36.4243 5.54508 1.10165
35.6883 5.71669 1.1497
36.7981 5.56419 1.11528
36.3939 5.7129 1.18364
32.4916 5.29736 1.11022
35.2326 5.71172 1.18397
33.846 5.51559 1.16922
32.8135 5.23824 1.12227
33.6505 5.50086 1.18886
33.3788 5.83682 1.25857
32.8295 5.1747 1.12049
32.4299 5.49206 1.21611
32.9867 5.85249 1.30674
34.417 5.85168 1.30995
34.5499 5.8211 1.31878
31.235 5.46671 1.25263
33.4856 5.54697 1.27997
31.799 5.57028 1.30669
32.5908 5.62916 1.30867
32.0266 5.88143 1.40143
30.361 5.52757 1.32177
30.987 5.74826 1.39838
29.4209 5.38792 1.3188
31.0577 5.63149 1.38566
30.2653 5.64454 1.3999
30.1541 5.97532 1.48697
28.2121 5.39599 1.3799
28.2988 5.24081 1.32587
28.6587 5.52245 1.42043
29.5479 5.56632 1.44812
27.6957 5.53712 1.43268
25.4772 5.15922 1.35326
27.5465 5.41232 1.43012
26.6309 5.41695 1.45245
27.5795 5.56083 1.495
26.4746 5.14413 1.38726
26.5817 5.40222 1.47172
26.8428 5.70166 1.55713
25.6334 5.60757 1.56983
28.6878 6.14492 1.72338
26.1141 5.73956 1.61034
23.7049 5.11339 1.44934
24.8902 5.39483 1.55986
26.8276 5.68212 1.63348
24.2331 5.183 1.50554
24.4483 5.37215 1.56035
23.8278 5.295 1.55802
23.8316 5.2827 1.58097
24.752 5.62161 1.69979
24.9099 5.86813 1.78706
23.6452 5.63171 1.72835
22.8829 5.6034 1.73646
23.7486 5.79138 1.7698
23.6914 5.67287 1.75372
23.3044 5.4519 1.73757
23.8738 5.74566 1.79915
22.7571 5.59799 1.76244
22.2001 5.43303 1.74613
22.4042 5.58411 1.79743
22.9722 5.63736 1.82091
22.9811 5.7999 1.89723
22.4076 5.68938 1.90099
22.4861 5.65058 1.86152
21.2891 5.49053 1.85211
21.4445 5.66261 1.88099
20.4177 5.32984 1.84309
20.8956 5.47279 1.8619
20.7445 5.62817 1.97071
22.449 5.6741 1.94517
21.2712 5.87024 2.04173
20.3382 5.48759 1.93535
18.3702 5.12155 1.8533
20.1941 5.68261 2.04533
21.9277 5.79626 2.08059
20.4254 5.45268 1.96605
19.2927 5.54016 2.03189
20.1228 5.61188 2.06353
18.628 5.57843 2.07468
19.667 5.61488 2.07238
19.5773 5.77651 2.20485
20.0523 5.98152 2.22409
19.0186 5.59147 2.12502
18.8112 5.43452 2.04774
18.4417 5.62662 2.18522
17.3403 5.29631 2.07944
18.6991 5.73069 2.24145
18.7439 5.62337 2.2204
18.1951 5.37683 2.09798
17.6909 5.61763 2.27016
18.3687 5.79328 2.33142
17.1613 5.32966 2.16699
17.8907 5.97767 2.50196
17.8412 5.71321 2.29564
17.8953 5.54382 2.26058
17.5116 5.60993 2.33782
16.4943 5.54842 2.32227
17.121 5.75986 2.41954
18.0853 6.03415 2.51916
16.9212 5.41832 2.29997
17.3349 5.81611 2.45403
17.0085 5.85195 2.53721
16.926 5.58357 2.4222
16.2838 5.69707 2.47051
15.863 5.29253 2.31131
15.1073 5.36186 2.37346
16.6188 5.62333 2.47573
15.8303 5.47516 2.4677
15.9395 5.6012 2.51323
15.6406 5.30039 2.44013
16.7966 5.92138 2.63811
15.2561 5.65766 2.56864
14.9415 5.39182 2.52057
15.0738 5.34583 2.50111
15.5142 5.60495 2.64682
14.6387 5.17892 2.42763
15.8396 5.56781 2.56708
16.9523 6.3121 2.98553
14.2758 5.31741 2.56236
15.3651 5.51326 2.58971
14.4438 5.56191 2.71055
15.1955 5.72973 2.78921
14.6459 5.50091 2.7496
14.5201 5.46856 2.65
14.9796 5.59928 2.84003
14.9843 5.43032 2.65206
15.6143 5.96454 2.97394
14.5982 5.71954 2.92202
15.5626 5.82007 2.93778
14.3969 5.62134 2.83268
14.9035 5.7402 2.85945
13.9823 5.60561 2.90013
13.6045 5.54844 2.89164
14.8907 5.6695 2.9539
14.0583 5.7517 3.01633
13.5267 5.49029 2.88781
14.0088 5.71201 3.06266
14.2355 6.01748 3.13115
13.6773 5.77515 3.06521
14.1791 5.93843 3.16262
13.5141 5.66774 3.11158
13.1832 5.30825 2.91331
13.5814 5.51909 2.96772
12.8757 5.48592 3.03149
13.2695 5.70254 3.13582
13.4792 5.8671 3.29811
13.0547 5.59877 3.10609
13.7355 5.72465 3.18517
13.1563 5.71783 3.291
13.0561 5.81133 3.29417
12.4772 5.32652 3.03953
13.3445 5.85789 3.30844
12.5873 5.63124 3.27588
12.5805 5.56496 3.2119
12.9556 5.64024 3.29789
12.4177 5.7657 3.38215
12.7582 5.7495 3.51788
13.461 5.99078 3.45121
12.5933 5.42787 3.24583
12.5014 5.80715 3.47518
12.2336 5.56569 3.31219
12.0252 5.8427 3.52552
11.9594 5.51687 3.36905
11.4305 5.61852 3.42952
11.8012 5.57339 3.47098
12.2445 5.83679 3.56453
11.7038 5.67292 3.60331
11.6876 5.42932 3.39321
11.5301 5.45905 3.40289
12.215 5.82523 3.62298
11.483 5.81418 3.77624
12.1171 5.87503 3.6508
11.524 5.6172 3.60371
11.1385 5.5585 3.58638
11.126 5.6718 3.68668
11.0146 5.42897 3.52837
11.1292 5.40579 3.59206
11.354 5.59245 3.71271
11.2425 5.88106 3.85517
10.6175 5.526 3.65614
11.0454 5.59385 3.74691
11.7562 6.04609 4.01989
11.5316 5.95506 3.98209
10.778 5.55057 3.71696
11.5045 5.85349 3.97635
10.5865 5.57837 3.88849
11.2678 5.66283 3.83079
10.6526 5.67814 3.94654
10.266 5.53896 3.80872
10.6646 5.93205 4.16307
10.3953 5.51649 3.7935
10.2061 5.45671 3.82182
10.2241 5.61526 3.95475
10.6429 5.97171 4.17999
10.3766 5.57903 3.96656
10.3077 5.94322 4.29687
9.65051 5.3716 3.88396
10.4852 5.56992 4.01912
10.2681 5.68376 4.06313
10.4831 5.97239 4.36551
10.7774 6.14167 4.48987
10.1999 5.7477 4.23655
9.83836 5.54 4.08139
9.6622 5.49556 4.15303
9.63464 5.64258 4.20788
10.3937 6.09176 4.55986
10.3496 5.92017 4.40968
9.68816 5.61763 4.19782
9.68344 5.6801 4.40133
9.63417 5.83384 4.41317
9.13128 5.41632 4.17433
9.65207 5.67666 4.43543
10.3588 6.24104 4.82682
9.10538 5.86149 4.56741
9.55575 5.72252 4.45921
9.19149 5.49429 4.25685
9.63032 6.09399 4.78517
9.67947 5.9258 4.67584
9.34411 5.72977 4.57534
9.174 5.81241 4.6363
9.21334 5.53752 4.49085
8.88525 5.56506 4.44815
9.09149 5.84054 4.72294
8.86415 5.25701 4.23703
9.0353 5.75599 4.74422
9.1148 5.80542 4.72457
9.53666 5.96227 4.79483
9.01954 5.61968 4.72885
9.30687 6.20296 5.06867
9.07976 5.82267 4.80161
9.04286 5.83023 4.85782
8.77087 5.7703 4.88864
8.53395 5.46771 4.64656
9.23326 5.90474 4.90173
8.88494 5.89342 4.96984
8.7563 5.96044 5.16972
8.74333 5.86747 4.91844
8.49258 5.82777 5.10413
8.46108 5.78001 5.02885
8.45784 5.73729 5.01205
8.20878 5.54568 4.9171
8.82775 6.09032 5.18323
8.20209 5.60199 5.08491
8.94876 5.95077 5.08199
8.04223 5.66902 5.09263
8.18385 5.74697 5.17855
8.33515 5.73769 5.04617
8.29874 5.99825 5.48596
8.91514 6.0493 5.4087
8.41434 5.8534 5.25827
8.42888 5.805 5.32206
8.49522 5.91127 5.35774
8.31592 6.11115 5.41978
7.79749 5.68823 5.2536
7.78901 5.44426 5.01741
8.04612 5.9208 5.5677
7.98087 5.70552 5.22605
7.79311 5.77915 5.49827
7.8936 5.52019 5.15685
7.8946 5.71547 5.40225
7.8764 5.74929 5.41896
7.78408 5.81789 5.60633
7.94778 5.7274 5.36597
7.35048 5.8845 5.64842
7.72619 5.88529 5.61292
7.76611 5.82113 5.58681
7.82544 5.55066 5.428
7.90746 5.82661 5.76358
8.05715 5.86455 5.71111
7.96804 6.31443 6.05078
7.81793 5.67527 5.5963
7.53656 5.65996 5.60325
7.60567 5.79349 5.70141
7.2281 5.63626 5.67094
7.63883 5.8312 5.81673
7.6191 5.92065 5.81675
7.26184 5.61129 5.80361
7.10338 5.67894 5.7867
7.97473 6.25541 6.30611
7.02299 5.50562 5.67565
7.43525 5.65546 5.72215
7.49382 6.02946 6.15122
7.43436 5.78599 5.94886
7.66521 5.85497 5.9614
7.47543 6.12298 6.28478
7.27994 5.77312 6.1026
6.961 5.67158 5.79651
6.91131 5.77643 6.2209
7.72812 6.03906 6.23528
7.15171 5.83166 6.01812
6.6166 5.56583 6.00653
7.10461 5.76248 6.17707
7.05784 5.75606 6.02684
6.77684 5.71871 6.1916
7.23398 6.0381 6.40545
6.75059 5.79968 6.36423
7.09675 5.88919 6.42979
6.87734 5.71197 6.09151
6.66299 5.57904 6.27698
7.16996 5.87785 6.25542
6.83581 5.70494 6.33181
6.89963 5.76801 6.23104
6.86443 5.8408 6.62596
6.96022 5.87708 6.36949
6.84266 5.88907 6.36738
6.80942 5.90584 6.6778
6.79013 5.86694 6.67624
7.01244 6.10244 6.8869
6.68784 5.66879 6.36419
6.75471 5.69623 6.36015
6.47205 5.83911 6.69868
6.7146 5.88595 6.69925
6.88036 6.17362 7.09086
6.28822 5.57479 6.48004
6.90995 6.20256 7.0449
6.49823 5.8259 6.72795
6.79537 5.85319 6.779
6.51493 5.93209 6.94156
6.26153 5.72717 6.78633
6.43671 5.68659 6.51618
6.21967 5.82716 7.03519
6.36488 5.94296 7.14315
6.66416 6.16453 7.13452
6.22805 5.81122 7.0186
6.27474 5.51889 6.3593
6.56526 5.87017 6.97592
6.55743 6.09276 7.38182
6.54222 5.88818 7.00199
6.13776 5.74062 6.9308
6.44951 6.07302 7.46058
6.58069 6.33042 7.53832
6.09352 5.65876 6.9917
6.06309 5.66382 6.83175
6.04342 5.8198 7.28022
6.57689 6.07509 7.40907
5.98202 5.686 7.23842
6.11341 5.67404 6.95175
6.30917 6.1313 7.74338
6.46828 6.22366 7.87604
6.49811 6.65685 8.15107
5.80615 5.61528 7.06094
6.20658 6.07686 7.61802
6.17893 6.0486 7.81801
6.29376 6.16844 7.70883
6.17704 6.15531 7.59602
5.65592 5.79744 7.72176
6.31159 6.2947 7.87839
5.95386 5.86583 7.5674
6.17192 6.26366 8.23704
6.11963 6.005 7.63872
5.68937 5.85346 7.65309
6.08561 6.18107 8.32865
6.35107 6.36633 8.31359
5.90233 6.23669 7.9377
5.91895 6.11016 7.85482
5.99588 6.07347 7.98865
5.88704 6.11277 8.1218
5.85389 5.93419 7.72573
5.52397 5.88964 8.01126
5.91687 6.18702 8.36072
5.78959 5.94747 7.85002
5.77576 5.96837 8.0505
5.76598 6.3745 8.23629
5.57895 5.96268 8.15527
5.45093 6.01 8.30189
5.54864 5.88378 8.10817
5.70262 6.08545 8.15639
5.5612 6.27047 8.51708
5.6032 5.91374 8.24345
6.0542 6.50964 9.02268
6.14628 6.35523 8.59059
5.8426 6.02615 8.42609
5.84655 6.47565 8.76903
5.7752 6.35528 8.78777
5.46959 5.83135 8.37268
5.66289 6.05707 8.28298
5.75445 6.49087 9.09227
5.49815 5.82635 8.18279
5.0995 5.58813 8.16889
5.30874 5.98975 8.87463
5.82557 6.63533 9.178
5.55241 6.19997 8.64801
5.3317 6.06703 8.73465
5.52346 6.05194 8.78461
5.82207 6.34075 8.81095
5.22837 6.02602 8.77883
5.46916 6.10865 8.87885
5.46638 6.32074 9.16097
5.1791 5.83096 8.32515
4.98539 5.85407 8.69907
4.71419 5.54007 8.21699
5.12429 6.0133 8.89621
5.27839 6.1566 9.02257
5.24479 6.00799 8.73413
5.17374 6.08614 8.97265
5.14349 5.62402 8.22844
5.17084 6.06998 8.97248
4.90463 5.80583 8.67754
4.90109 5.98507 8.96777
5.05209 5.69843 8.68892
5.24944 6.09773 9.00066
4.8571 5.6012 8.40654
4.94361 5.7758 8.77341
5.0552 6.00416 9.27104
5.2996 6.28213 9.429
4.82329 5.69369 8.84815
5.13654 6.17908 9.38841
5.12272 5.82758 8.89056
4.69645 5.7552 9.09018
5.15716 6.10156 9.2768
5.07891 6.20418 9.50713
4.66439 5.89826 9.47919
5.15621 6.26127 9.47737
4.93022 5.86117 9.2851
5.00002 6.24042 9.60829
4.70311 5.81582 9.34759
4.82743 5.53873 8.55736
4.71802 5.79025 9.28238
4.92799 5.89666 9.15728
4.77643 5.89914 9.46491
4.5793 5.59901 8.60771
4.57911 5.75864 8.98312
4.98611 6.30956 9.98801
4.74387 6.47831 10.4529
4.84346 6.46467 10.4289
4.95109 6.01278 9.70954
4.97732 6.15621 9.93247
4.67308 6.01153 9.86257
4.91338 6.29229 10.5058
4.68461 6.09273 9.86323
4.70544 6.10909 9.99973
4.58011 5.73631 9.51966
4.65546 6.14933 10.3046
4.90907 6.27033 10.3593
4.65444 5.97193 9.74224
4.6082 6.01636 10.0642
4.84213 6.17163 10.0758
4.79856 6.01725 9.80083
4.71595 5.91541 9.82492
4.52766 5.97069 9.98294
4.5135 6.17233 10.5492
4.64613 6.11307 10.3728
4.96877 6.40808 10.4726
4.74198 6.35293 10.6417
4.54232 5.95087 10.2388
4.63362 5.98918 10.1955
4.48417 6.06939 10.3149
4.66781 6.35683 10.9844
4.40789 6.08022 10.5096
4.68183 6.32256 10.7231
4.70701 6.37023 10.9041
4.38049 5.9941 10.1518
4.45129 6.05928 10.232
4.31516 6.04383 10.5829
4.41941 6.02845 10.6325
4.43812 6.10137 10.8614
4.36619 5.96932 10.8082
4.77198 6.39933 10.7938
4.50062 6.09566 10.4863
4.28975 5.91538 10.4526
4.54791 6.20829 10.8942
4.71697 6.42993 10.8821
4.33518 5.95411 10.8132
4.5245 6.23008 11.1913
4.63051 6.62443 11.5617
4.28108 5.81674 10.3711
4.27589 5.67624 10.1986
4.17221 5.81555 10.613
4.44218 6.23511 11.2573
4.40199 6.06365 10.7442
4.1534 5.81577 10.8777
4.44668 5.93449 10.5021
4.3748 6.07406 10.9412
4.24235 5.77295 10.4885
4.25873 5.89143 10.8302
4.37906 6.05391 10.6498
4.2125 6.22951 11.4944
4.13276 5.67942 10.6561
4.18824 6.1972 11.6734
4.11666 5.96282 10.8559
4.35223 6.32275 11.4651
4.03319 5.9361 11.4199
4.51071 6.2699 11.5409
4.40653 6.2343 11.3034
4.01874 5.85408 10.8215
4.02986 5.96897 11.4601
4.22036 6.44966 12.2274
4.22593 6.09618 11.2419
4.1301 6.0654 11.5924
4.27878 6.56421 12.5526
4.40881 6.57839 11.8543
4.01001 5.76941 10.9372
4.02964 5.99223 11.7085
4.16614 6.13319 11.2555
4.16205 6.14096 11.9245
4.12904 6.09868 11.5672
3.87475 5.89829 11.297
3.89742 5.81657 11.0437
4.07078 6.06911 11.934
4.03591 5.92558 11.2891
3.87331 5.93435 11.5385
3.89586 5.74955 11.2827
3.97313 6.02124 11.7467
3.88669 6.0787 11.9168
4.03613 6.27878 11.9204
3.77004 5.69913 11.7465
4.16118 6.32014 12.0158
3.9436 6.21047 12.2375
3.96409 6.13424 12.2533
4.01958 6.03943 11.8128
3.87158 5.94338 11.7815
3.96118 6.11282 12.1071
4.05003 6.65745 13.2732
4.03632 6.14772 12.4033
4.06554 6.37383 12.7165
3.9615 5.96236 11.8782
3.99985 6.05539 12.2622
3.92486 6.24334 12.606
3.9715 6.39557 12.8495
3.90491 5.98995 11.8995
4.00682 6.37629 12.665
3.81893 6.09457 12.3903
3.91035 6.35379 12.9487
3.88698 6.10696 12.1172
3.68958 5.83258 12.282
3.73145 6.15941 12.7337
3.92615 6.28805 12.9346
3.86435 6.07991 12.1036
3.94129 6.46304 13.1339
3.59096 6.11284 12.4843
3.60588 5.65552 12.1182
3.93413 6.37691 13.1111
3.99343 6.50075 13.5822
3.72174 6.46852 13.0805
3.62716 5.93957 12.3949
3.90093 6.1537 12.9529
3.73671 6.3775 13.1948
3.71934 5.88893 12.651
3.71354 6.21725 13.4773
4.01481 6.54895 12.7141
3.55873 6.07 12.7626
3.58921 6.14533 13.2442
3.54061 6.10071 13.0739
3.69671 5.74339 11.9977
3.51479 6.18801 13.8508
3.95433 6.35676 12.8854
3.56691 6.02317 12.779
3.48256 6.11026 14.0327
3.71209 6.15631 13.1891
3.75014 6.01267 12.7698
3.57791 6.13267 13.3737
3.68852 6.06295 12.9631
3.51842 5.93617 12.8971
3.77067 6.47525 13.6803
3.49505 5.9207 13.3216
3.78077 6.63289 14.0765
3.73692 6.09456 13.1905
3.38105 5.78499 12.7798
3.52948 6.10375 13.5133
3.57206 5.92485 12.8903
3.37651 5.88257 13.0036
3.59682 6.09606 13.3408
3.4972 6.07278 13.5706
3.58187 6.36746 14.0522
3.65962 6.38067 14.2175
3.55278 6.16149 13.9368
3.72526 6.37049 13.6972
3.40356 6.04899 13.6855
3.66836 5.95173 12.5905
3.37905 6.17692 13.9787
3.38655 6.15244 14.234
3.67012 6.31383 14.1714
3.39003 6.23051 13.7278
3.35431 6.05195 14.0755
3.41958 5.86595 13.0403
3.13729 5.64054 13.1751
3.37702 6.07554 13.6156
3.48598 6.27604 14.3212
3.65574 6.35289 13.9553
3.4325 6.21869 13.9851
3.43249 6.16973 14.4321
3.52982 6.49679 14.4039
3.43115 6.18428 14.1282
3.37305 6.20879 14.6567
3.59523 6.42623 14.447
3.4301 6.17643 13.987
3.32791 6.20775 14.5249
3.56371 6.12711 14.1176
3.29045 6.30639 14.6295
3.53018 6.42598 15.6231
3.68967 6.47153 14.2941
3.47549 6.26132 14.4288
3.49003 6.3579 14.1368
3.17551 6.22399 15.3209
3.49844 6.58685 15.3164
3.37489 6.17869 14.2242
3.34169 6.51421 15.7128
3.31334 6.53549 15.3037
3.31651 6.15045 15.1043
3.40134 6.34699 15.0374
3.54473 6.08526 13.7923
3.27984 6.21302 15.1354
3.27505 6.06022 14.6639
3.38308 6.34397 14.8756
3.22098 6.20101 14.5013
3.18067 6.12709 15.1502
3.17913 6.11503 15.1384
3.42989 6.38484 15.1652
3.39594 6.27958 15.4473
3.39326 6.34838 15.1679
3.44217 6.38378 15.0885
3.28819 6.09787 14.4363
3.40072 6.61707 15.7825
3.42788 6.25011 15.4838
3.30471 5.94515 14.4899
3.13366 5.78213 14.1679
3.35638 6.54553 15.6672
3.29394 6.18767 14.86
3.26427 6.47767 16.116
3.38133 6.47 16.1452
3.32803 6.41063 15.1902
3.162 6.34208 16.054
3.60665 6.85038 16.24
3.20949 6.32982 15.6474
3.06459 6.03103 14.9526
3.24299 5.94529 14.7537
3.0882 6.07072 15.3771
3.06573 6.17962 15.3761
3.19114 6.15842 15.8971
3.2435 6.50686 15.3679
2.9575 6.11059 15.452
3.20664 6.33674 15.3516
2.99005 6.04191 15.703
3.03465 6.27818 15.9681
3.1623 6.44045 15.9584
3.13924 6.38608 16.5065
3.30701 6.03301 15.0054
3.16435 6.43517 16.2242
3.33969 6.53656 16.6037
3.22341 6.43116 16.0697
3.23942 6.42523 15.8365
3.11332 6.29928 16.4149
3.21268 6.27196 15.8312
3.13602 6.38149 16.6857
3.20103 6.50746 16.8196
3.31452 6.36174 16.7034
3.41539 6.72459 16.4208
3.10364 6.11378 15.8242
3.12002 6.46702 17.2047
3.25999 6.79743 17.5144
3.26294 6.57167 16.2979
3.03233 6.3413 16.4727
3.00944 6.43789 17.2109
3.33848 6.74291 16.7416
3.15042 6.65111 17.6559
3.23215 6.88624 18.0217
3.31122 6.75802 17.5501
3.3355 6.92554 18.289
3.36461 6.95882 17.8429
3.14722 6.3496 17.3402
3.44755 7.25589 18.6949
3.36631 6.9291 17.2941
3.03477 6.80173 17.7973
3.06764 6.45558 17.4443
3.07934 6.55575 17.6033
3.23963 6.69538 17.027
3.03588 6.43349 17.0074
2.97242 6.31629 17.644
3.24413 6.76777 17.7778
3.08517 6.41702 17.4933
3.21367 6.70804 17.4511
3.01933 6.49257 17.0744
2.99555 6.42681 17.4785
3.16832 6.4514 16.8768
2.98294 6.40659 17.2683
2.98657 6.50311 18.0467
3.07852 6.69994 17.2928
2.89734 6.22193 17.7741
3.09254 6.22724 16.1736
2.89406 6.34152 16.8629
2.85866 6.10063 17.1021
3.12154 6.68758 17.9401
2.95479 6.15341 16.3964
2.90167 6.39654 17.3455
2.89711 6.37054 17.7093
2.97526 6.39904 17.4028
3.01114 6.64358 17.8902
2.98632 6.10484 16.6677
2.93862 6.86014 18.4637
2.83501 6.23078 16.732
2.92477 6.50641 17.5705
2.87456 6.13674 17.0924
2.8731 6.42297 17.8587
2.91501 6.51858 17.8373
2.85103 6.322 17.7868
2.88718 6.08872 17.4206
3.15964 6.6774 17.4556
2.74655 6.24821 17.5993
2.85425 6.21433 17.0456
2.83557 6.44175 17.795
2.82128 6.42342 18.0788
2.864 6.25439 17.3463
2.83388 6.3331 18.4132
2.82748 6.47371 17.942
2.93916 6.73571 18.5563
2.83945 6.30947 18.5028
2.91058 6.43271 18.0027
2.91334 6.64574 18.0529
2.79765 6.02293 17.6806
2.82029 6.00473 17.0672
2.93839 6.74428 18.6019
2.82786 6.4432 18.3828
2.95379 6.37844 17.6933
2.83079 6.63197 18.956
2.93957 6.82466 18.7973
2.72662 5.92999 17.4244
2.83005 6.45482 17.9651
2.63749 6.10235 17.7313
2.83714 6.35109 18.8293
2.83837 6.25018 17.7679
2.86144 6.43967 18.8224
2.87932 6.45748 18.019
2.81818 6.85008 20.2529
2.86279 6.39879 18.0246
2.88334 6.48927 18.2589
2.73482 6.63959 18.6722
2.67054 6.27554 18.7065
2.77526 6.29203 18.6517
2.89028 6.29596 17.861
2.71584 5.99516 17.7521
2.73842 6.32195 18.3998
2.60973 6.19787 18.3406
2.68345 6.27854 18.0666
2.65434 6.43807 18.5381
2.74325 6.35086 18.6439
2.77827 6.55 19.4048
2.77246 6.59994 19.2107
2.84377 6.37587 18.5845
2.87905 6.45714 18.8256
2.66662 6.50452 18.728
2.61113 6.16462 18.1838
2.55711 5.86825 17.4716
2.71206 6.05256 18.0546
2.61504 6.21135 18.7548
2.61744 6.17225 18.4283
2.64997 6.09277 17.6003
2.65756 6.51448 18.5882
2.61947 6.0943 17.3449
2.51591 5.67088 18.1676
2.85071 6.48856 18.7164
2.63565 6.33657 19.0704
2.71312 6.5697 20.1748
2.72934 6.42149 19.068
2.75879 6.66221 18.7231
2.60777 6.40613 19.8415
2.79814 6.54379 19.3716
2.79605 6.20376 19.7747
2.83834 6.68516 19.2395
2.62268 6.0526 18.4802
2.80488 6.58714 20.0368
2.85637 6.19165 18.1833
2.52308 6.17895 19.4322
2.57552 5.89391 17.7127
2.58866 6.4339 19.2804
2.76176 6.76861 20.2284
2.70575 6.51793 19.6206
2.58225 6.42843 19.8633
2.67107 6.37104 19.6709
2.66186 6.35306 19.933
2.76091 6.55842 19.6757
2.63566 6.1902 19.0668
2.59618 6.5978 20.1834
2.6923 6.71363 19.8853
2.66542 6.77444 21.0757
2.69881 6.73854 20.1781
2.77587 6.39796 19.5714
2.44967 6.18026 19.3436
2.56726 6.35976 19.8418
2.58831 6.33524 19.6062
2.63599 6.39693 19.3197
2.59235 6.42206 20.9407
2.79065 6.41256 20.4037
2.76918 6.33077 19.3157
2.63925 6.67097 20.1628
2.66987 6.7705 20.8345
2.65515 6.61531 20.6718
2.69107 6.68849 20.8034
2.60328 6.63284 20.4861
2.59284 6.28429 20.2989
2.69819 6.43296 19.6327
2.50472 6.16314 19.2278
2.55923 6.52922 19.8679
2.52104 6.25846 20.1834
2.55554 6.3561 19.694
2.59784 6.71593 20.6006
2.57707 6.54151 21.6856
2.85748 6.71827 20.5821
2.57721 6.31013 20.9138
2.6756 6.53507 20.535
2.5296 6.24767 19.2234
2.54507 6.48111 19.82
2.55409 6.58484 20.559
2.51926 6.15322 20.1242
2.57139 6.53506 20.9651
2.54794 6.35476 20.4924
2.5847 6.60886 21.3973
2.65694 6.52676 21.9604
2.78918 6.49416 20.0955
2.50742 6.24775 19.9562
2.61563 6.6596 20.818
2.56785 6.71705 21.7817
2.60336 6.29553 19.5109
2.51227 6.42939 21.1196
2.64321 6.80226 21.4706
2.59153 6.48176 20.4798
2.52144 6.78321 21.7955
2.505 6.48705 20.9099
2.58475 6.47059 20.9879
2.56128 6.34075 20.491
2.57606 6.54163 20.9275
2.57968 6.73023 21.9673
2.67356 6.66766 20.9713
2.48187 6.61021 20.9258
2.43106 5.94883 20.1253
2.5378 6.47954 20.7412
2.45964 6.29146 20.669
2.53485 6.68087 21.7129
2.54914 6.73393 22.634
2.57732 6.33938 19.9316
2.43061 6.77933 22.4085
2.52543 6.34234 21.0997
2.53976 6.877 22.4113
2.52548 6.13079 20.5321
2.49163 6.75687 21.3696
2.50336 6.59867 21.404
2.48025 6.45106 22.0161
2.57386 6.3374 19.8233
2.32792 6.44088 22.6972
2.60849 6.76145 21.1331
2.52032 6.78279 23.2509
2.64801 6.68322 21.3421
2.47502 6.78585 22.3999
2.49212 6.28551 19.9378
2.35919 6.41844 21.4486
2.39064 6.63969 22.656
2.55235 6.67491 22.7606
2.49101 6.57262 22.5686
2.72454 7.05312 21.9166
2.39665 6.61525 21.2204
2.42375 6.47125 21.6485
2.42722 6.24098 21.0519
2.40737 6.32379 21.9488
2.52708 6.6664 22.463
2.57455 6.97747 22.0601
2.42988 6.50687 21.8044
2.39364 6.50315 22.1924
2.48763 6.78601 22.279
2.5848 6.86959 22.4655
2.35448 6.49404 22.3866
2.4636 6.28312 20.3184
2.24769 6.41848 23.0073
2.4566 6.44577 21.7975
2.43641 6.41575 21.6486
2.44566 7.02873 23.8684
2.63853 6.68168 21.6883
2.37911 6.76896 22.9017
2.47938 6.35928 22.2065
2.50736 6.98818 24.4161
2.56442 7.04881 24.6098
2.62231 6.63555 21.237
2.31317 6.48199 21.9489
2.33176 6.2687 21.1198
2.22447 6.44994 21.7207
2.32497 6.21865 21.2526
2.2543 6.41452 21.7668
2.32161 6.36475 21.1303
2.32784 6.56025 23.4322
2.35225 6.62495 22.9398
2.50864 6.47501 21.466
2.3109 6.61766 23.1768
2.42761 6.87032 22.26
2.20829 6.08299 21.4764
2.33601 6.08385 20.6787
2.30192 6.64332 24.3448
2.48354 6.71337 23.776
2.56984 6.98185 22.3516
2.36874 6.76247 23.3831
2.37768 6.39009 21.4126
2.29208 6.45908 23.003
2.43853 6.78756 23.7268
2.44178 6.83604 23.362
2.34694 6.4303 22.1248
2.31911 6.46347 22.276
2.27012 6.47434 22.7466
2.37187 6.73293 22.6694
2.333 6.3249 23.0723
2.34952 6.35869 21.0507
2.25809 6.61297 22.9259
2.33987 6.41253 23.2525
2.37152 6.58524 22.7888
2.42756 6.56584 22.8096
2.35807 6.84071 24.655
2.55728 6.85996 23.7383
2.39489 6.35963 22.4566
2.38672 6.77567 22.4581
2.2998 6.21257 22.8199
2.43721 6.84609 24.243
2.50785 6.56847 23.3558
2.40286 6.69728 22.5294
2.30133 6.80842 23.4856
2.3489 6.54514 23.3557
2.30369 6.47186 23.0844
2.37552 6.66267 22.7498
2.29888 6.43702 23.9124
2.5195 6.69664 23.1991
2.27626 6.4855 22.8652
2.37523 6.45658 23.458
2.28672 6.42147 22.8694
2.36169 7.03598 23.8917
2.3374 6.29505 22.8111
2.37406 6.60244 23.3512
2.30493 6.29349 23.4015
2.4104 6.96341 24.5884
2.4818 6.79732 23.3298
2.40768 6.57679 23.8372
2.41934 6.83697 23.3184
2.38485 6.79439 24.1258
2.31059 6.52657 23.2089
2.35671 6.79226 25.0196
2.44287 6.87879 24.6593
2.32679 6.53926 23.0869
2.31473 6.41567 22.9723
2.28774 6.80189 25.3644
2.45433 7.11644 25.5209
2.43754 7.07743 25.5574
2.47453 6.4658 22.5898
2.33809 6.6877 25.5094
2.49761 6.98617 24.941
2.30694 7.23756 25.3837
2.44955 7.01505 26.2478
2.60707 6.65508 24.3791
2.45286 7.05864 24.2789
2.48001 7.39745 26.4233
2.47681 7.28409 25.4884
2.40201 7.3434 26.7801
2.56091 7.12528 25.5018
2.51542 7.31966 25.1732
2.35686 6.98846 27.0306
2.62872 7.63561 27.1193
2.62036 7.20606 26.5086
2.51441 7.11634 27.1834
2.51286 6.72315 22.8216
2.23154 6.8206 25.2115
2.40755 7.16345 25.8361
2.42661 7.00468 25.4108
2.42857 7.30935 26.0884
2.40742 6.90794 24.3462
2.27559 6.68616 24.8314
2.3421 6.66481 24.6977
2.34752 6.86209 25.3828
2.42135 7.10796 25.7629
2.35728 6.7634 24.9888
2.37531 6.97055 24.6084
2.37192 6.96707 24.6998
2.23014 6.50598 25.1148
2.28392 6.69289 23.9254
2.27142 6.72572 24.5828
2.34821 6.72138 23.172
2.16841 6.34431 24.6662
2.3268 6.71977 25.1526
2.42681 6.91057 25.1766
2.27637 6.83483 25.6862
2.35844 6.56631 23.4815
2.13598 6.41243 25.0203
2.42411 7.32261 26.8991
2.38991 6.96528 25.2405
2.26071 6.94617 25.5109
2.31875 6.83185 23.7786
2.18388 6.46061 24.7956
2.22972 6.62234 23.858
2.28648 6.65473 23.6482
2.20842 6.71072 25.2549
2.2845 6.68688 24.4583
2.17646 6.34168 24.3802
2.28798 7.04992 26.1189
2.30687 6.71029 25.5465
2.29098 7.04718 25.9221
2.28433 6.8766 26.457
2.35934 6.83274 25.1262
2.22434 7.02489 24.8712
2.23702 6.56541 25.2569
2.344 6.97399 23.9176
2.10029 6.37877 24.6038
2.17473 6.76804 26.2746
2.27417 6.65034 24.9646
2.25531 6.67344 24.2995
2.17309 6.60598 22.9913
2.01334 6.7773 26.9327
2.35101 6.69007 25.2091
2.1478 6.56118 24.4092
2.24632 6.4012 24.116
2.2393 6.40757 23.6929
2.12459 6.56493 24.3049
2.19773 6.46327 24.3399
2.19951 6.85521 24.4047
2.14583 6.4211 25.2921
2.20428 6.58135 25.1191
2.19382 6.8887 24.9701
2.24814 6.51991 24.2639
2.15135 6.42569 23.5122
2.1033 6.43243 23.6547
2.1303 6.68751 25.4473
2.13972 6.24957 23.2806
2.02136 6.45585 26.685
2.33422 6.98033 25.0209
2.16536 6.40041 25.3221
2.23041 6.25316 22.9076
2.09043 6.38006 24.9054
2.13758 6.56596 25.7413
2.23272 6.59262 25.7616
2.29283 6.97485 24.1356
2.15374 6.61187 25.3414
2.21949 6.85297 26.0269
2.2241 6.65403 24.2988
2.10965 6.32261 24.6618
2.16819 6.71069 25.1952
2.16581 6.52862 23.9003
2.10184 6.25135 23.7713
2.06061 6.18412 25.0239
2.22658 6.95483 25.3159
2.16972 6.40754 23.0242
2.01644 6.26439 25.1276
2.14804 6.63954 25.1507
2.11941 6.36958 23.8905
2.04802 6.4592 25.5793
2.2667 6.69672 25.8406
2.26977 6.675 25.443
2.22103 6.55706 24.341
2.17558 6.70528 26.1589
2.19047 6.23209 25.7461
2.23055 6.90141 25.4698
2.19735 6.39466 23.419
2.09081 6.36755 23.5733
2.06458 6.77963 25.9926
2.15063 6.39735 26.0272
2.22534 6.67475 25.9248
2.21451 6.57121 24.1716
2.03026 6.25355 24.9102
2.21846 6.64051 24.3326
2.08651 6.77826 26.3041
2.23799 6.69769 24.9078
2.12164 6.46205 25.1746
2.12036 6.83253 26.256
2.18675 6.34762 26.7514
2.30045 7.14677 26.253
2.17541 7.06577 26.2573
2.12204 6.40151 25.1162
2.18316 6.45371 25.0224
2.18326 6.66013 24.8163
2.03914 6.53993 26.1063
2.24153 7.1058 26.1479
2.20027 6.78795 26.7496
2.24341 6.98352 27.2307
2.20326 6.48233 24.3206
2.08965 6.3012 24.7437
2.15128 6.4178 24.3455
1.9954 6.58536 26.4241
2.20923 6.78076 26.0319
2.16887 6.81737 26.1659
2.19081 6.60771 25.2067
2.20031 6.26379 23.6934
2.06042 6.39612 24.7541
2.06642 6.54423 26.1712
2.17988 6.50301 24.428
2.13697 6.49531 24.9639
2.07785 6.5551 25.7857
2.19999 6.95219 26.1882
2.1917 6.65222 26.5807
2.20795 6.64453 26.2802
2.22734 6.56605 25.1833
2.1724 6.63399 26.3944
2.22435 6.78145 25.6731
2.19893 7.09182 28.127
2.2096 6.65123 24.8575
2.16908 7.01755 26.6418
2.10284 6.4855 24.5806
2.0238 6.40514 26.1708
2.23742 6.97539 27.184
2.16472 6.46443 25.0331
2.18346 6.74876 25.1922
2.12234 6.58905 25.4335
2.21702 6.9295 27.3229
2.12684 6.51227 26.7252
2.27035 6.69923 26.7934
2.24222 6.73458 25.4189
2.04233 6.57349 27.3267
2.21081 7.02073 25.0799
2.07465 6.47834 26.5788
2.17456 6.54116 24.8513
1.97269 6.57526 26.5394
2.24559 6.82199 26.7662
2.15453 6.56661 26.2743
2.18192 6.64305 26.6365
2.2041 6.74097 25.2319
2.05778 6.32523 25.6683
2.15154 6.74277 25.6136
2.09636 6.61042 25.9844
2.09892 6.53697 25.6944
2.09817 7.04345 25.993
2.14795 6.29593 26.2727
2.22443 6.75738 26.0462
2.07051 6.94155 26.1296
2.10447 6.65024 25.8958
2.10559 6.6441 26.8669
2.20734 7.13159 26.3663
2.0926 6.84172 27.4094
2.15987 6.62832 26.5764
2.18105 6.46139 25.8587
2.10369 6.89664 26.3321
2.14888 6.66883 26.3286
2.13421 6.41394 25.6373
2.12558 6.60981 25.781
2.10392 7.00019 26.8104
2.17685 6.63031 27.0262
2.17914 6.99862 27.0632
2.16939 6.78746 28.0462
2.25263 7.13505 26.8528
2.14341 6.81789 27.227
2.12477 6.6289 27.0836
2.17235 6.7353 25.5134
2.0743 6.69292 25.1791
2.04855 6.31036 25.3945
2.06191 6.33777 26.0333
2.06868 6.77228 26.5368
2.12675 6.23502 24.4742
2.02562 6.48546 26.1377
2.07615 6.73896 26.3756
2.08333 6.22167 25.3766
2.03636 6.34215 25.7211
2.02372 6.44094 24.904
2.00347 6.74175 26.4341
2.10794 6.71861 26.2656
2.02009 6.76854 25.8757
2.09083 6.46639 25.9592
2.13594 6.35961 26.1259
2.12075 6.5284 25.9063
2.04631 6.87137 28.1975
2.20473 6.83545 26.5357
2.16907 6.81246 27.1439
2.13629 6.728 25.4061
2.07661 6.28445 25.0791
2.07991 6.76609 27.4128
2.20217 6.72601 26.1992
2.02806 6.30014 26.4056
2.12689 6.91787 26.2553
2.14124 6.43651 24.2555
2.00504 6.38994 25.9092
2.02365 6.74416 26.1663
2.05249 6.62909 26.3139
2.02885 6.96673 27.6463
2.11734 6.85789 28.0404
2.19335 6.81692 26.2094
2.04741 6.40209 25.7712
2.0585 6.44044 25.9293
2.06265 6.85054 27.5048
2.08578 6.56148 27.1526
2.11971 6.60018 25.4167
2.07519 6.5847 25.9952
2.10408 6.54981 26.1538
2.06306 6.66993 26.0524
2.03152 6.46423 26.7257
2.09631 6.70121 25.4413
2.01254 6.63402 26.0091
2.02937 7.21869 28.2958
2.20527 6.54818 26.462
2.04669 6.8055 26.4426
2.08417 6.55379 25.9573
1.94848 6.87781 28.6147
2.14613 7.03159 27.318
2.11395 6.72026 27.4239
2.12216 6.89514 26.1422
2.10132 6.68817 28.4083
2.19776 6.7511 26.4977
2.04645 6.7511 27.1462
2.11984 6.80918 26.7465
2.092 6.77623 28.4913
2.22038 7.16765 28.4062
2.15039 7.14768 28.2746
2.2383 6.86389 28.6041
2.25159 7.01889 27.323
2.17456 6.53555 26.2098
2.04784 7.32253 27.815
2.11002 6.68302 27.2249
2.07628 7.03563 25.7529
2.0535 6.31508 27.5391
2.18131 6.83594 26.8286
2.05269 6.49983 26.6859
2.07255 6.73286 26.5403
2.09378 6.67015 26.5825
2.12792 6.50433 27.2386
2.12076 6.74668 26.3501
2.09259 6.94531 26.9646
2.17645 6.80394 27.6636
2.18591 6.68224 28.1586
2.2104 6.60158 26.5933
2.04757 6.91682 27.9714
2.21104 7.04481 26.4614
2.10236 6.77853 27.2009
2.14975 6.8677 25.7367
2.01058 6.65283 27.2914
2.11794 7.00782 29.0365
2.25844 7.06486 28.0533
2.19988 7.04011 28.7595
2.24158 6.70265 26.4561
2.04779 6.653 26.4333
2.07017 6.91382 26.8564
2.10444 6.46786 25.5784
1.9842 6.66902 26.8146
2.11409 6.9459 29.1788
2.26921 7.15903 28.6674
2.24022 6.54433 26.4573
2.00135 6.84006 27.494
2.19374 6.92136 26.7989
2.13184 7.35764 28.0013
2.25056 6.59241 27.5569
2.14615 6.70169 27.8804
2.05419 7.40138 29.4087
2.33069 7.45277 28.759
2.19979 6.97296 29.2805
2.2391 7.25815 26.7104
2.03213 6.97655 30.352
2.33397 7.18469 28.9372
2.31742 7.29 29.462
2.34467 7.58371 29.1813
2.28787 7.28407 27.9622
2.26952 0 0