# pn-170911/RbIIA-29-TWTF-1280-1959.psd
# Power spectrum* (dif=0,1,2) (really just |FT|^2)
# NOTE: only the first half! (symmetric)
# weeks: 1280-1959
# 2 clock-days, 2 excluded
# PSD: 1441
80.975 0.542459 0.00333112
220873 1.81836 0.000944606
1.92184e+06 48.6161 0.00223209
167772 4.44522 0.00131367
52073.9 3.42026 0.000949385
38895.1 1.84579 0.00132006
8271.74 0.0484187 0.001104
6234.72 3.73392 0.00267031
40546.5 6.15204 0.00174415
7233.83 1.31178 0.00160779
23855.8 6.69796 0.00697168
2813.54 5.09592 0.00410165
636.015 0.497472 0.00102
9679 6.51825 0.0101234
5293.74 3.189 0.000780457
8371.76 5.12887 0.00862668
2187.74 0.425417 0.00105471
540.329 2.99466 0.00342959
8134.83 6.90466 0.0142659
188.506 2.32584 0.00421838
2051.13 0.950622 0.00149805
5190.5 10.7361 0.0170938
1351.92 1.45071 0.00224219
731.356 3.70665 0.0143411
638.167 1.54922 0.0025598
3399.89 4.56958 0.0115908
4555.17 7.55151 0.0209885
1181.09 2.77387 0.0130124
410.182 3.10933 0.015489
1121.53 1.59186 0.00872465
857.413 5.89085 0.0329943
2144.59 4.96619 0.0240139
1880.09 5.04579 0.017474
1141.84 6.7878 0.0267457
1438.66 3.84856 0.0194838
1809.04 5.06282 0.0366039
450.954 1.11015 0.0126303
220.424 0.172612 0.00237012
543.611 2.9459 0.0275768
148.678 1.88144 0.0185085
907.851 4.27626 0.0280934
177.925 1.40337 0.0165171
551.031 1.62145 0.0169109
413.527 5.39724 0.053871
290.835 7.52439 0.0741017
1506.85 8.73896 0.0909476
202.703 1.43247 0.0142153
105.748 5.14061 0.0554947
237.706 4.67659 0.0620038
1084.08 6.10778 0.0587104
780.57 3.73866 0.0485434
24.9582 1.31576 0.015625
109.729 1.15164 0.0186608
373.974 1.94049 0.0275228
70.562 3.02187 0.0375119
365.289 1.22369 0.021018
339.678 1.16073 0.0131836
285.023 2.30013 0.0337609
382.576 6.3427 0.0872755
405.551 4.79223 0.0858871
131.902 3.60297 0.0622512
219.201 1.05738 0.0201843
914.102 13.3187 0.255232
96.6768 3.02272 0.0624186
168.545 2.06641 0.0393454
362.367 2.84088 0.0642187
248.785 3.12948 0.0778691
210.881 4.22709 0.108601
489.186 4.04429 0.0833971
410.808 6.18616 0.153455
235.593 2.46997 0.0705234
199.911 4.64875 0.103467
250.461 4.4444 0.118932
555.511 7.09012 0.198048
261.996 6.80746 0.172273
377.17 4.01318 0.0977676
452.718 7.36768 0.194231
134.496 1.21517 0.0295168
199.366 2.80035 0.0786169
720.796 20.3402 0.618556
215.105 3.70919 0.125334
44.4685 1.71799 0.0537113
110.098 1.73258 0.0379256
54.4703 1.22542 0.0365455
66.3838 1.37933 0.0354326
111.873 7.21804 0.250714
115.292 0.917585 0.0274168
89.7216 6.62913 0.25467
217.973 4.34676 0.131223
77.049 1.21674 0.0459444
104.742 3.78059 0.154236
176.28 2.93519 0.117843
57.5712 2.35183 0.0799103
137.012 2.27117 0.0841464
41.4628 0.632321 0.0269351
217.906 7.52889 0.339006
85.1339 1.65895 0.0704416
113.706 3.56241 0.190481
210.985 4.4442 0.195107
159.118 8.89571 0.454099
66.0848 2.22374 0.0817122
48.6915 1.60556 0.0929245
247.946 6.97603 0.300984
185.829 5.47355 0.285381
381.133 10.932 0.542112
74.2656 1.23756 0.0868238
81.8165 2.38044 0.154149
111.776 7.04058 0.324196
157.551 7.10039 0.393718
134.653 7.20305 0.426737
145.877 4.48226 0.24293
78.5955 5.28378 0.308154
309.345 9.06847 0.51619
153.345 4.12761 0.252403
91.11 2.4029 0.15238
140.621 4.3789 0.316671
32.2957 3.24899 0.193725
136.467 5.02306 0.306531
67.3108 2.75799 0.184581
75.2794 2.65777 0.207391
77.2875 8.41222 0.563012
12.74 0.561195 0.0612202
21.671 0.213415 0.0224359
112.253 6.4217 0.407975
119.287 8.38367 0.619347
48.5758 7.85554 0.595366
53.1243 0.806288 0.0637754
109.478 2.49179 0.169613
53.2853 1.16695 0.0883108
54.8619 4.36358 0.343699
60.3307 1.08291 0.0936287
34.7334 3.08262 0.26569
194.327 9.69436 0.789781
49.7998 1.63679 0.151928
164.713 7.95512 0.649881
79.066 2.4874 0.251691
53.6174 2.65906 0.212898
9.52232 0.921402 0.0891991
120.281 5.43454 0.495453
49.8063 7.20563 0.675809
25.9226 2.15578 0.227312
118.886 3.86308 0.323835
97.1163 3.65681 0.382028
77.6539 3.12826 0.317164
43.1843 3.1104 0.360035
80.7667 6.01809 0.542824
35.779 0.481573 0.0414176
59.6631 2.63405 0.274088
34.2678 2.62889 0.26177
66.5876 2.81497 0.32936
63.752 4.17122 0.513116
56.6266 3.04317 0.368708
34.0167 6.88249 0.678246
30.9786 1.49245 0.200685
105.044 5.06462 0.597646
17.399 1.84599 0.158412
74.748 8.51349 1.12427
56.4062 3.05709 0.245138
102.251 9.37418 1.24087
39.4057 9.25212 0.923802
32.9625 4.78241 0.551895
7.04538 3.04407 0.432659
98.6533 6.9903 0.839016
26.8885 0.937811 0.114047
82.614 6.99649 0.924114
78.7177 8.08368 0.975066
46.4546 7.61225 1.12247
85.11 10.1943 1.23049
34.2413 2.68294 0.411612
22.5914 6.67418 0.975281
34.7484 2.12385 0.236114
64.9474 4.49773 0.658857
39.5697 2.78504 0.404934
150.903 13.5878 1.92836
69.1938 6.45511 0.835619
15.8537 3.25072 0.410366
26.7417 5.14212 0.709748
55.3827 6.18911 0.989861
76.6129 8.14266 1.17768
38.1533 3.55983 0.564957
17.2389 1.97239 0.242396
46.8181 4.31464 0.617904
13.5997 0.79259 0.155773
53.6927 9.79699 1.59881
36.3594 6.52953 1.01725
66.0346 4.19102 0.649085
10.9082 1.72558 0.234747
47.6785 8.1288 1.37362
63.5098 4.62578 0.688236
12.3493 3.53802 0.702239
72.1062 5.33764 0.924368
12.1679 1.33321 0.149961
21.564 2.48827 0.347067
30.7875 3.52565 0.602283
22.7406 3.0884 0.624843
32.5877 5.27873 1.11441
67.6828 5.80128 0.970125
28.2311 3.83545 0.831812
33.1989 2.50918 0.357502
13.8512 0.159929 0.0512322
37.2342 4.61205 0.814026
5.81495 1.11205 0.233289
24.2593 4.41301 0.75297
6.4109 1.81887 0.385363
21.071 3.3082 0.699549
35.1761 2.26142 0.512757
43.8755 4.30785 0.655874
143.275 21.4035 4.25563
6.204 1.36291 0.262464
17.1814 5.01267 1.10635
13.3296 2.84432 0.624998
8.86599 0.442774 0.0927754
26.273 3.17856 0.693828
12.6649 1.06553 0.186315
22.4244 2.4349 0.513765
7.13681 4.48388 0.96477
19.245 3.10296 0.777673
18.004 1.49903 0.36166
37.1491 3.07358 0.652443
54.9075 8.45487 1.92985
13.2497 1.01728 0.336603
15.6668 1.53055 0.418502
33.5384 5.03813 1.36004
19.075 3.13559 0.590908
18.0774 7.15558 1.72332
93.6608 13.8301 3.25474
36.3911 4.85214 1.22507
59.8613 10.7722 2.25005
16.2583 2.41893 0.777451
32.5667 3.87242 0.91404
6.47508 0.72524 0.133175
33.4293 6.18207 1.79107
17.2382 1.46731 0.373333
15.0172 2.52635 0.874902
27.6302 6.02656 1.29115
10.0088 3.21588 0.641061
10.8847 2.53015 0.676168
20.3124 9.29264 2.73166
39.4211 3.66143 0.834644
3.45981 0.934798 0.24288
23.7631 2.80996 0.811592
4.37265 2.81762 0.477804
7.0831 4.46321 1.2007
7.61013 3.03996 0.865566
7.404 1.35012 0.548957
48.5458 11.4312 3.04043
16.2572 1.04052 0.226094
41.5264 7.41515 2.30641
24.8535 2.92277 0.962885
32.2115 6.28083 1.56407
16.9199 2.62134 0.772684
25.2578 13.7747 3.8286
38.7578 6.66189 1.77718
53.7727 12.7299 4.30034
29.6862 9.26404 2.29567
19.8763 2.22689 0.740547
11.3461 1.77241 0.763326
13.6182 4.59683 1.2704
2.16602 2.86139 0.654528
19.5993 14.9329 5.39693
46.9951 6.94649 1.64622
13.1339 2.1745 0.900792
14.3591 4.37462 0.956022
23.0474 7.29571 2.45052
5.73502 1.08549 0.571319
15.6579 4.66633 1.58025
28.3019 10.237 3.31985
10.8613 0.922606 0.425005
26.4942 4.97383 1.5478
14.6935 2.7882 0.719612
3.05282 1.57359 0.656957
6.58817 3.10482 1.17492
19.2775 4.24446 1.31418
31.7649 6.73575 2.04613
16.626 4.21211 1.97354
19.5735 2.30877 0.43045
19.5822 3.01112 1.01069
10.9453 1.54583 0.551492
17.5416 6.20419 2.97597
30.1413 6.91831 1.77171
5.54433 2.31682 0.910093
10.8727 1.98726 0.89588
6.15575 2.45746 0.911186
14.5353 4.90309 1.76753
18.1094 1.83733 0.402164
13.7388 5.22288 1.87176
11.4095 2.5451 1.3275
53.7464 10.1688 3.38634
8.57109 1.91653 0.928623
27.4219 6.49863 2.74214
4.64824 2.65254 1.11825
19.0699 3.35826 1.56088
12.7846 5.97036 2.15082
7.62105 3.16395 0.935626
6.96736 1.36951 0.538311
3.62941 1.26799 0.783724
6.99208 1.76501 0.707951
15.9558 2.79431 1.41023
54.908 15.4582 5.32194
17.3402 4.26049 2.21346
12.3981 2.69231 1.45989
14.5686 4.30663 1.81803
15.9617 3.39327 1.45367
12.8137 5.93298 2.2553
22.3876 5.78252 2.88654
24.1139 8.58632 3.29271
10.925 5.90418 2.33008
4.87739 1.61 0.786027
33.3455 14.6613 7.27429
24.5565 4.46306 1.34329
6.71527 0.925149 0.330407
19.5162 2.90519 1.06605
38.8463 12.5744 5.98158
3.39784 1.9178 1.30659
8.11159 3.98244 1.49105
5.57657 1.75154 0.608121
1.34923 2.68162 0.973928
0.800113 0.888807 0.278855
15.4544 8.96759 5.12234
16.5785 6.03211 1.93829
5.73014 4.37032 1.78181
13.2256 2.79855 1.21296
16.0122 7.83779 3.44268
4.95558 1.49351 1.11277
21.867 7.65866 4.19741
6.68745 2.05615 0.600543
1.15353 2.85603 1.31397
20.539 10.4294 5.26221
22.8278 6.11064 3.00755
2.78564 3.43821 1.70256
6.46901 1.97028 1.09211
16.3876 5.23625 2.71461
23.3163 9.79023 4.53183
8.80088 3.56503 1.93726
17.4309 3.09032 1.41474
9.13138 2.40244 1.16141
7.83152 5.51968 2.67496
7.65423 3.66829 1.98644
14.6747 5.10436 2.90598
16.761 5.75121 2.70849
1.45771 1.09058 0.700014
3.6142 2.27261 1.22219
6.29067 3.00044 1.35576
9.60521 4.19481 2.62203
3.72397 1.37549 1.14483
26.6558 9.32644 5.19119
2.59579 5.06703 2.65075
12.0062 4.17295 1.94847
9.16153 6.13418 3.38326
3.41132 1.69861 1.64648
9.15575 2.02348 0.984671
11.7003 3.22423 1.49386
29.3058 8.6767 4.3718
5.36957 5.0053 3.71577
19.8975 4.23873 1.57948
9.14391 1.22479 0.647753
9.22044 2.11671 1.58013
5.04581 0.784895 0.462471
4.34402 2.98424 2.13378
5.02235 2.16334 1.20368
8.74418 3.17649 1.35218
12.3213 4.12538 2.26168
5.17832 0.718667 0.359057
5.12023 3.57686 2.75225
14.9293 4.45101 2.51267
6.11592 9.08179 4.83896
14.0775 4.87821 2.85651
6.07376 3.441 3.31005
12.2333 2.86025 0.991453
5.43812 4.36985 2.48544
14.2306 4.87353 2.32265
6.46341 2.23369 1.45694
14.9059 4.19097 2.65003
9.47539 2.935 2.80379
2.26506 2.4204 1.59474
9.69865 4.68676 2.80368
24.2844 8.93652 5.6325
5.41143 3.18939 2.80286
13.0303 6.78408 4.48669
1.21333 0.497425 0.0682167
3.41379 5.83431 4.01898
12.1784 3.58659 3.01766
4.44114 0.609585 0.664766
4.78689 2.50216 0.759751
4.45023 4.86579 3.08168
7.48307 4.84292 3.52482
9.52359 2.88927 1.29372
5.67317 4.38099 2.81799
5.36477 2.2955 1.4067
6.75345 2.98829 2.06174
3.79502 1.12683 0.716535
1.50432 3.19337 2.24559
7.57891 1.02169 0.585735
2.62553 2.18933 1.48554
2.99013 2.41667 2.16659
12.4455 3.57398 2.3027
5.21914 5.64808 3.19051
0.841519 0.916561 0.69757
1.89791 5.24107 5.3517
11.7578 2.96186 2.22992
26.2023 10.0335 6.04328
4.49106 1.49205 1.11773
1.8332 1.60824 1.20248
5.0724 0.741242 0.39775
8.59041 4.35178 2.90357
12.7624 3.33166 2.19133
4.16794 1.76012 2.0751
21.7765 12.689 10.0362
8.87837 11.6835 7.29271
6.61711 1.79021 1.45516
1.29113 1.97411 1.54499
5.20377 1.31758 1.00173
4.88268 3.74381 3.23827
19.4803 10.6102 8.63972
8.57685 4.19439 3.622
3.47765 0.995026 0.412966
6.98776 2.89916 2.20884
2.06067 3.08033 3.5825
8.32597 1.91224 0.879852
4.92671 2.80819 3.47228
3.19706 3.03473 2.84214
10.4294 6.71367 3.70595
9.14471 3.07677 2.0665
7.41461 9.45855 9.03708
21.9602 9.16944 5.57617
2.34576 1.71734 2.26947
2.02794 1.31659 0.447513
1.78232 0.816388 2.00192
20.5014 18.326 12.2305
1.39826 4.909 3.78223
2.84257 4.51723 5.09107
11.5517 3.12759 2.74574
10.3269 4.52442 3.53512
1.34827 1.30013 0.838697
1.50784 2.29516 1.99734
1.18806 1.62932 1.75474
4.03377 3.85322 2.49046
3.96117 3.20886 3.56093
3.99224 4.73309 4.47397
4.805 3.81676 3.09957
6.39737 7.60101 6.5654
5.64651 1.56973 2.34325
6.68689 2.67509 2.12605
14.5076 5.67878 5.0614
6.34005 6.16886 5.22973
10.9117 3.53376 2.20772
3.7426 1.08339 1.36063
4.5309 4.12984 4.1637
2.75088 1.55201 1.98885
6.39966 4.66111 2.41366
8.08904 7.37034 6.4951
5.22179 1.77212 1.87608
4.02828 9.00062 8.30233
5.48829 3.64536 5.23571
15.3646 8.80361 8.11757
12.4226 9.32197 6.9898
2.85165 0.971576 2.4993
8.37974 3.68342 2.48893
7.5441 2.46214 1.73279
5.27851 1.64788 1.25222
8.99913 6.3131 7.13637
11.0654 4.71716 3.3722
3.36045 2.06838 3.43101
3.72302 7.19109 5.56748
5.08745 1.68268 2.74955
6.19426 4.11403 3.31394
7.02027 8.58977 10.858
9.11578 8.6186 5.57523
2.42635 0.458632 0.433199
0.921996 0.388111 0.937955
4.95335 4.98379 4.78862
9.26433 4.06508 2.83155
4.32353 3.99453 3.36594
1.64581 5.41936 6.04785
6.45751 3.42397 2.4193
5.95392 3.60422 4.32767
5.20661 4.32292 5.6382
7.47602 3.21706 3.06127
1.76484 1.47716 1.63531
7.31402 4.39418 6.93181
12.1787 11.5102 8.37149
2.89633 0.30796 0.922652
11.5428 8.03443 5.54544
7.25438 3.28183 2.46863
6.84848 5.39338 6.08173
2.89146 3.59396 5.30269
1.86772 2.02396 4.94416
19.7503 13.3099 11.4798
8.03184 2.9998 1.68228
7.62329 2.76695 2.39806
5.01859 3.33722 4.37802
4.81312 2.72018 3.50499
8.38338 5.62681 5.54711
5.75297 6.19861 6.12007
1.27885 0.769399 0.494934
1.14058 1.47914 1.12569
2.14785 1.13027 1.90269
2.1271 0.781028 0.811827
2.09516 1.83248 1.64434
5.03384 2.36559 3.02239
1.781 0.884441 3.48717
4.78329 8.2105 5.90731
2.65012 1.7196 1.92376
5.43436 2.07807 1.65635
5.90843 4.22441 6.12604
4.7895 2.18018 2.76356
3.17885 3.96453 4.23809
2.98835 2.82248 4.29845
3.70073 6.81109 7.17286
7.76378 2.34657 1.46237
1.78031 0.804749 1.30424
7.34307 8.88837 11.7323
1.90323 1.14418 0.730043
3.62494 4.23829 6.80681
7.83669 8.95724 6.99724
1.41134 0.109141 0.200325
3.31014 2.79746 4.31383
3.11109 2.23027 3.34502
2.83288 1.44557 1.19136
0.712921 2.80297 3.19755
1.92756 2.99468 2.70524
2.20971 3.76559 4.07822
4.14616 1.16272 1.76526
1.78483 4.35858 5.77768
6.92971 3.42073 1.57384
2.81041 3.26758 2.75324
0.916301 0.449422 0.714825
2.77189 1.04543 1.28399
2.84604 5.00116 3.36272
5.78568 15.0371 24.9743
14.5759 14.0436 15.0075
8.44598 1.70889 1.28911
2.42425 1.53487 3.50113
10.0036 4.79608 3.63453
8.06296 5.53698 7.35341
4.54001 4.1779 3.35512
9.1106 9.23612 12.7461
4.92697 5.92446 5.4026
1.22882 2.06801 4.32508
3.0594 3.75306 7.19201
10.5395 8.79226 7.10007
1.75926 1.10033 2.44284
1.46364 4.53292 5.19658
2.63461 4.06252 5.86588
12.7646 8.58916 8.01875
1.00942 2.1736 1.74145
1.53556 5.07497 3.8975
3.31635 9.73398 12.905
3.52812 6.06825 10.0926
6.18521 4.94853 8.69985
13.8389 8.21019 8.48565
6.49267 3.63682 3.44552
4.94373 4.99282 6.54064
4.21804 2.55913 2.68103
2.59662 5.06029 7.06558
2.2537 2.27763 3.35936
5.10928 3.09029 6.14878
0.433344 2.37244 1.74335
1.58389 2.48649 4.11274
0.74884 5.46542 9.92514
5.86711 5.44616 5.20513
4.73946 5.52846 5.01018
1.70217 0.657001 2.77001
9.06768 9.00293 7.14973
1.07816 5.03836 8.05761
1.94702 1.98095 3.81424
4.39012 1.98265 2.84032
1.13943 2.9513 7.36373
9.98358 5.37665 6.06618
5.18267 7.85922 8.80568
2.8594 5.80389 7.80069
5.04352 4.38672 3.79864
4.35779 4.60625 6.17227
1.84063 2.43606 5.92404
11.4761 7.86943 9.73947
1.42182 3.18185 3.92459
7.31423 7.18598 10.806
3.23242 2.72691 3.71365
2.60102 1.86172 2.96173
1.8916 1.52671 1.87964
2.59343 1.74194 1.23756
4.83798 4.66297 3.8754
2.50962 4.43697 7.93109
4.30406 1.47421 2.30423
7.40962 5.47704 4.92781
2.70747 4.56154 7.75403
5.1497 5.75788 9.96674
6.5849 7.03506 9.05914
1.92397 5.79103 16.7478
4.40019 4.65381 4.27021
2.13714 0.682909 1.16024
3.6895 5.22491 7.48036
6.42516 4.02612 4.70095
1.97717 5.89009 8.28405
1.93035 1.25146 3.48575
7.84103 8.38681 14.5266
5.70623 4.23932 5.24978
7.93255 9.7509 12.4933
1.9999 1.91406 5.3827
2.41273 1.92257 1.8955
4.11585 4.3896 5.56552
4.0127 3.93262 5.46767
2.36624 1.29704 3.57198
4.40486 5.60059 5.73199
1.55357 5.04925 8.05868
2.05384 2.23966 3.39945
2.49008 2.49059 4.63255
5.55327 3.00025 4.79353
1.96209 2.96218 4.25195
1.30346 2.76062 5.64295
1.1245 1.39597 2.57985
1.97436 1.59622 4.89368
4.04829 0.686326 0.493535
1.63557 1.33579 3.46348
1.44321 0.294696 1.73116
1.85731 4.87861 8.85048
2.48073 7.6083 12.3615
1.91868 3.6859 16.214
15.1962 7.21699 3.33789
3.2231 2.50755 3.7717
1.18741 0.489864 3.81975
6.42569 2.96927 2.70046
0.387025 2.89786 6.97569
4.90772 0.65921 0.857249
4.0381 0.488088 1.28373
9.28983 6.91862 9.36049
7.40753 7.68669 9.49458
4.0229 3.16933 4.64866
2.56979 3.42679 4.01128
2.68179 2.13593 5.04971
6.7912 4.28142 5.7481
3.60093 3.68667 4.1058
2.70016 2.37043 6.24449
1.18198 3.50433 3.784
2.51741 3.34466 12.0677
7.22523 7.75238 6.16395
0.309196 4.78713 10.4869
8.34843 5.45695 5.25141
2.48863 1.79711 4.21305
2.35506 5.64161 11.3347
4.09746 0.809516 1.55913
6.38319 8.45641 11.009
1.1411 0.785072 5.82387
13.201 15.2395 17.68
2.44447 2.30163 5.96446
1.08081 3.17764 4.26165
1.86321 2.10062 2.93578
2.55264 5.09724 9.11686
4.8777 5.58818 10.7973
2.86159 2.85647 3.15275
2.08862 2.74884 3.84932
0.981772 0.998197 1.83562
1.06461 4.77704 9.42333
3.84849 3.67721 6.73525
3.97979 3.34628 6.08163
1.87101 2.61394 9.69301
4.85462 3.48792 4.74195
5.09694 2.50466 3.55103
2.27827 3.07134 7.133
3.33036 2.29902 4.02512
4.05327 2.88991 5.7671
3.96541 1.86301 2.10623
5.92524 3.19968 2.91233
1.0872 2.17485 8.43482
4.47609 3.54723 3.68218
8.85225 11.9394 17.6631
3.36844 4.25678 8.92056
4.23883 3.71246 4.97824
5.73687 6.77116 11.4832
4.14581 2.8767 6.71746
4.22402 4.64645 8.55208
3.89248 2.04279 3.0163
6.66785 6.44675 11.9069
5.73777 4.88558 9.51133
5.81522 6.80474 5.34036
3.61838 3.87366 6.85097
2.41332 0.772274 2.35611
5.40023 4.33915 5.22407
2.62844 2.03508 2.31323
1.03925 2.16363 5.71031
5.31993 3.23819 3.13993
1.945 1.64318 3.75249
0.263676 0.994404 4.86449
6.3852 7.229 9.69838
1.13977 4.62264 10.3718
4.32223 2.02469 1.62578
4.23064 8.99571 24.7989
7.18305 9.16757 15.602
6.29573 4.52821 3.19747
3.89809 3.82478 6.79526
1.57878 3.16464 11.3889
3.55563 12.5068 36.1084
8.24611 7.13934 9.13103
6.78946 8.85324 7.2117
2.16299 1.7868 1.85848
1.78052 1.30756 1.9349
3.70305 7.10998 14.7786
5.51134 5.16122 6.28373
1.56328 5.00664 9.52099
4.62409 6.15671 6.47093
4.24706 7.11917 15.7438
2.70233 1.82205 5.71099
1.31601 4.87298 7.12693
3.09267 3.90285 8.20642
1.18462 9.77455 21.7292
7.16551 3.90407 4.97005
1.60006 1.25768 3.27664
1.59902 0.812365 4.13592
4.47716 5.76856 5.68193
1.71684 3.51114 8.49887
0.937475 0.469765 2.60275
5.53994 8.731 17.9372
3.21876 4.77675 8.39039
1.475 0.687943 3.28566
3.64835 1.69638 1.84596
2.17336 1.01891 1.29778
1.99476 2.32129 8.18336
3.67951 9.69075 18.3202
4.80697 1.34727 2.3222
5.10734 4.32254 8.8857
5.07111 6.85699 12.6249
0.263367 1.08139 6.68298
2.38287 3.11623 3.77695
3.35098 4.25943 16.5963
4.34934 7.30554 3.14725
1.29889 6.31703 8.71102
1.29478 6.62534 14.8666
4.24129 1.2196 0.77471
2.59646 2.83706 4.93594
1.81839 1.64302 5.69566
1.61456 0.775642 5.06096
5.40562 7.34254 10.7013
2.51284 1.36823 3.09546
2.37743 3.72339 7.44178
3.82733 4.53327 13.8426
5.35251 6.01144 11.3814
1.98459 2.30421 4.17099
2.37188 3.76963 8.92279
1.16897 2.75402 15.4215
8.37497 11.0337 13.8403
1.11954 4.899 10.6554
1.9826 2.12527 9.22397
4.82517 4.68657 5.49434
0.628557 1.97295 4.06498
3.82086 7.72481 10.1653
2.88572 6.97666 13.7296
2.40008 11.8303 23.8618
2.74248 3.20111 8.11116
1.46805 2.46413 14.1726
4.03111 2.35353 11.1726
6.9482 4.81255 16.5265
8.49771 16.3194 22.4592
6.41193 4.27471 4.38424
4.58161 4.60153 7.28312
2.80411 5.22948 6.15451
3.18079 5.02926 9.62742
1.65569 0.940497 3.61575
4.07342 4.48753 8.59272
1.94067 1.78771 7.33733
3.52726 4.50081 13.8915
1.90802 2.20035 6.45621
8.00237 14.2347 18.8215
0.931381 4.53287 14.446
2.10792 6.13293 13.6592
1.01372 0.376719 2.62165
2.13786 7.62753 18.5008
2.06332 1.85315 2.43596
1.52544 2.94421 10.8499
0.609939 2.93133 4.79027
1.15724 2.52379 7.9705
1.49982 9.94566 19.2341
3.61266 3.17225 4.70499
0.684685 2.05142 4.15603
2.91646 7.58464 21.2615
3.26301 3.75622 2.99212
1.20374 2.94056 9.83677
3.14559 3.13763 5.02595
1.86523 1.26466 5.3819
3.15756 5.49418 9.69801
1.08009 5.67397 22.9313
7.94734 5.92205 5.62906
2.14487 5.71594 12.8531
4.71168 2.49434 2.30765
2.99079 4.62602 7.67824
1.72788 0.721613 0.906113
3.35463 4.76499 10.2505
2.53384 7.09861 26.4752
2.63163 6.89173 8.56778
2.51062 5.41585 15.1663
1.76785 4.47598 12.5693
2.84284 5.63485 14.84
0.501229 0.826428 6.08647
2.14142 4.54451 4.21771
0.410968 3.66557 8.7923
1.39336 1.89332 5.67977
3.30914 2.76413 3.85252
0.808176 1.2231 3.90611
1.88155 4.69488 9.00489
1.91729 0.55695 3.4606
2.38206 6.5989 10.1432
0.790663 4.91218 15.525
1.08806 2.0372 9.34967
3.15696 0.87849 3.24681
2.75228 1.64602 3.43785
0.958457 2.47679 8.14486
3.1392 1.25412 3.09382
2.52447 2.13537 3.58174
3.70868 8.91279 24.5032
6.19378 13.9787 24.1015
2.58548 1.77229 5.45238
0.242335 1.97381 16.1648
4.99295 8.15189 10.3179
3.73507 6.6286 21.7159
1.59275 3.77885 7.90327
1.31081 4.4786 5.2061
1.3843 4.06476 14.5175
2.00963 3.6574 8.0899
2.09568 1.54462 14.7447
9.79692 12.2095 17.2275
1.81844 3.01321 6.32139
0.37694 0.483529 4.13975
1.87537 3.30639 6.6402
0.58627 3.86472 2.96596
1.23541 2.91026 8.49646
0.282915 4.24879 9.98839
1.25496 3.77629 7.96449
2.59866 7.11245 28.2498
5.80387 4.5756 13.7927
3.00147 8.95606 11.5036
0.877438 3.1122 10.8263
3.60253 4.0622 5.89374
0.47245 1.08321 6.80277
1.60307 3.18943 4.28446
2.06 7.26324 15.9535
1.22732 1.23552 2.78642
0.643998 2.34852 10.7797
3.55596 2.92422 8.36941
3.84701 3.88589 12.6591
3.53139 4.461 5.8858
2.15049 3.99424 14.5184
2.31827 2.14931 5.00196
4.0583 5.95288 14.2999
1.35849 2.27071 4.8697
2.17822 4.96568 12.3664
2.3345 2.90858 8.31803
2.52086 6.29987 20.2722
3.50207 1.60654 1.72598
2.14112 1.27559 0.660546
2.1961 5.06891 18.7109
2.48575 1.66873 11.3336
3.06085 7.70378 17.0599
3.44234 0.316599 11.52
11.6975 17.3177 19.2151
2.07975 5.1997 4.18953
2.69763 9.78447 27.5633
1.38946 8.6795 27.1522
1.47533 4.49923 12.0924
4.17841 3.97094 8.31901
1.7029 3.0494 6.41032
1.19281 1.30979 2.73017
1.57803 2.95738 13.324
1.75512 2.81767 4.92548
2.66478 8.65294 18.1139
4.0037 7.44861 23.6595
0.826927 5.1434 10.4925
1.89515 3.34226 15.1339
2.59997 2.42903 4.24043
1.57207 5.45401 26.3913
2.20279 4.97219 7.35047
0.578421 2.56315 10.6604
1.38694 4.47625 4.66883
1.20837 1.67937 4.81278
2.4435 5.75842 13.3808
4.12457 7.82075 11.925
0.791189 5.18271 15.6073
1.4229 1.63402 6.19297
1.67901 1.42834 12.0053
1.84699 5.35771 22.5568
5.11976 13.3049 17.4922
2.8059 4.37324 7.23313
0.473352 2.20122 6.60364
0.909668 0.219465 5.86751
4.2769 11.605 32.7917
1.75867 3.0808 3.8434
1.2399 2.66922 8.0784
2.07598 2.76336 9.68512
2.42763 6.38091 35.6314
8.59841 14.8763 18.4855
1.29555 8.98604 28.4825
3.67427 4.29767 20.315
3.3981 5.54316 8.93691
2.38651 2.11558 15.2851
6.46234 10.7354 12.0236
2.4661 4.50173 6.84338
0.407107 3.53833 13.9062
1.81357 3.342 10.5476
2.04878 3.25672 8.46003
0.695206 4.51002 14.2917
3.27499 6.00474 8.94014
0.893722 2.24316 6.77896
1.18276 2.73019 11.5129
3.08822 3.41275 12.2616
1.99308 5.16889 5.96534
1.53114 3.00649 10.5156
1.81458 1.70371 4.2919
1.78591 2.94649 13.6457
1.11399 3.41018 2.11333
0.523936 1.63096 8.75791
2.37195 7.99653 12.1012
0.234709 11.6269 43.1192
5.42543 5.43276 31.7334
7.39891 6.47477 11.6556
1.21329 2.97159 14.9017
5.70561 5.95528 11.4755
2.12927 2.07588 3.52463
1.76489 4.87706 10.2039
1.96834 2.40829 8.84177
0.914469 2.3696 10.6267
3.33962 6.415 21.2499
2.47438 3.23368 0.866128
1.58872 5.43963 28.7022
3.28171 6.28303 9.18661
3.86844 8.80025 19.6655
4.21279 5.44838 4.52436
1.83366 3.20688 9.19279
3.26476 7.83451 15.0542
0.134691 3.54091 19.4044
3.3526 2.81371 2.27781
0.619473 0.770657 2.47132
1.15913 5.10828 14.4582
1.31915 9.62763 39.5316
3.41687 1.70694 11.0788
4.56947 8.7286 5.6522
3.17262 9.44561 19.0792
0.874341 1.12484 5.37457
0.508389 0.204699 4.25412
2.32803 6.13215 14.1167
1.04696 1.50225 4.09098
0.742992 2.98614 10.7196
1.62094 1.57659 8.09386
0.972416 2.61897 4.84781
0.496637 3.41589 11.9072
2.53675 1.88263 5.07672
0.80074 1.1221 5.86786
0.532952 2.52934 13.6344
1.4101 0.200834 3.84703
1.05806 0.50236 6.78383
3.10288 8.0377 17.184
3.50358 5.0696 17.056
0.708159 2.25092 4.38315
1.00629 5.38282 21.2028
3.67854 5.22093 23.241
5.57604 5.12546 1.61448
2.96869 8.60543 22.2302
1.86234 2.59861 16.174
2.07324 3.75893 4.83104
1.92114 2.5135 3.28169
1.7604 3.32794 10.4827
1.45298 4.20202 11.5001
0.505421 1.48832 8.69039
0.395472 1.61259 7.15119
1.77485 1.92005 7.41897
3.87537 12.199 31.131
1.81968 6.80855 45.1829
2.74588 6.25586 13.1576
1.46779 8.35096 25.9197
4.12438 6.30838 14.0352
1.05255 2.33854 7.99835
3.52075 8.75074 29.0495
3.62805 5.53752 6.80741
1.4211 5.47284 20.1215
0.639453 6.03192 15.1107
1.25451 2.50153 19.6317
3.82282 7.10595 8.76389
0.857896 2.31662 12.4828
1.75238 4.88427 10.1883
1.04411 4.59263 10.2023
0.94651 1.26591 13.0715
2.90466 3.33736 8.29043
2.0398 0.296926 8.87496
4.12186 2.66549 0.805579
2.90375 7.31848 16.8479
3.81986 10.3659 19.2256
1.4924 2.43514 13.0252
1.38711 5.52881 28.8982
6.44598 12.536 21.6223
0.498355 1.91886 10.5581
0.477532 0.778096 1.76733
1.56498 1.5406 4.12505
1.38772 4.49832 10.6775
0.370534 2.30874 21.8053
2.97865 11.0706 40.0081
1.78972 9.52888 17.7702
1.80451 1.54913 2.91013
0.634255 1.63445 13.9457
1.20051 3.22272 8.79549
1.52206 1.70465 10.1982
1.68993 1.80946 10.3498
2.21568 5.7418 6.24006
0.444459 6.8562 27.4403
3.29619 3.45041 12.7935
2.01023 3.38424 10.6945
2.73096 5.18199 10.5257
2.3001 3.31617 5.78961
0.964445 6.3462 16.341
1.05562 2.92901 27.0271
3.51931 9.22529 15.6505
0.217925 1.58035 11.1224
1.73852 3.29096 12.7779
0.652322 3.65808 13.5846
1.10366 0.967194 7.26484
1.63422 6.81554 14.8353
1.19378 4.18816 22.8402
1.88323 2.02969 9.43026
0.774417 5.48856 8.25536
0.807356 0.516434 1.77677
0.36173 9.49598 37.0828
5.24715 4.2304 15.5118
3.0653 2.54055 0.710867
1.60225 3.21315 7.94531
0.81374 3.63632 4.16538
0.341801 2.71491 12.2822
0.375575 2.32337 10.8384
0.808408 1.8482 10.2485
1.26041 2.71473 6.90941
1.0776 5.26102 18.9257
1.69093 0.535158 11.0465
1.98963 4.10146 8.93491
0.47745 3.8764 8.71133
1.87966 5.20197 18.6389
2.03384 5.62315 17.2411
1.68036 3.47555 14.1958
0.480365 2.19905 38.5863
3.37663 10.778 7.13817
0.337788 5.33194 7.2459
1.69404 9.63813 30.3615
2.07071 2.63213 4.84758
0.539412 3.09904 1.82489
0.0441173 6.52466 18.9878
1.67018 2.36256 25.9453
4.73884 4.89834 27.7932
5.92037 14.426 43.0185
4.40419 6.63879 17.5892
1.18432 2.95351 6.22081
1.93833 1.83359 4.90991
1.34353 3.10334 7.40735
0.553109 3.87224 14.3504
0.437566 5.92665 15.7332
2.39384 6.41157 20.5779
2.27569 1.54809 9.32348
1.36685 13.6077 53.4866
4.44602 4.53835 10.8047
1.69367 1.50041 7.51794
2.34496 1.87872 2.60341
1.31769 7.29954 15.5275
0.625925 3.1225 29.3319
5.15618 6.15999 13.9035
2.04863 5.49426 8.49696
0.846346 3.39218 21.1423
0.671035 3.10337 1.88427
0.730354 3.16692 10.1801
0.411704 0.725223 1.75528
0.350027 2.48242 13.0491
3.10591 3.31743 6.54776
1.49361 5.87254 19.3465
1.3584 0.900787 7.19774
0.935045 2.5861 5.56414
0.636283 0.269856 3.30598
1.08149 1.17942 5.12643
1.00353 5.44918 23.4391
0.792465 6.04573 12.6736
2.046 9.36041 30.3101
2.10654 0.538922 3.71303
0.81528 0.862464 6.98862
2.53924 10.8804 42.3138
4.44271 4.53476 10.2788
1.62425 2.95038 6.74613
0.931884 11.9534 49.4689
2.90692 2.42357 24.4667
2.5963 2.64817 4.79576
1.28467 8.00466 18.2789
2.28325 4.51066 9.74133
2.06997 3.60698 15.1073
1.15247 1.71343 5.43294
0.0542567 4.20912 14.2827
1.54335 2.56681 19.5838
3.34253 2.37194 11.0916
2.62975 8.01258 16.7675
2.29863 5.23932 28.9005
2.71474 8.84229 17.0577
1.12493 3.45504 23.5732
2.19934 3.46135 12.1734
1.20745 5.36508 16.5116
0.938064 3.44421 14.3021
1.21183 6.3953 18.3381
2.77351 1.49549 11.837
4.40134 11.5507 30.2819
1.03887 3.06762 14.7293
1.48928 5.49604 15.3846
0.373011 5.90151 7.35376
0.824874 2.82792 22.4074
2.65713 5.41985 8.44437
1.43482 3.79555 22.8903
2.79677 7.65301 20.8529
1.89439 12.3851 33.6295
2.98532 12.366 52.5688
4.25885 2.6054 9.01594
1.4727 3.15077 16.9816
4.36572 7.62571 16.9392
1.77501 5.84339 19.6841
0.665248 1.25236 6.4793
1.7778 3.58216 14.2643
0.622461 9.06299 33.4087
4.1378 9.34919 21.3268
1.91507 2.03128 15.3459
1.19454 4.55617 8.66396
1.81044 1.19705 6.30196
1.7938 5.11069 13.6873
0.617371 3.23505 13.8078
0.796618 2.80357 5.63852
2.14906 6.38705 19.3067
0.484373 0.236377 3.66877
0.196786 4.93609 26.5217
2.6502 1.74701 3.59444
0.444001 0.789824 3.69757
1.14803 5.92094 24.2934
2.87643 4.4925 13.1663
0.488488 2.78424 15.3781
0.325858 1.80324 21.1108
1.30412 10.6465 21.8952
2.60041 2.63386 7.76962
2.12941 6.18576 31.4491
1.39327 4.8004 5.62959
0.846318 2.72595 13.1553
1.37862 2.67325 6.98999
1.28883 1.48881 12.2092
0.393982 5.18651 13.0014
1.54542 4.32114 16.1228
1.74938 4.8517 12.4527
1.72291 1.64222 7.55597
0.142293 2.28354 15.2005
0.559537 1.64155 32.0449
2.94704 14.3404 21.1082
2.43639 4.90381 7.65786
0.141999 13.8504 43.0934
3.12744 4.51209 39.5987
5.29886 1.41949 16.4307
4.11583 7.7819 6.24281
0.906761 1.84032 4.62046
1.93659 5.33511 24.424
1.26995 5.93734 7.76497
0.632793 5.59652 24.8114
0.919533 1.37958 11.5123
0.84332 8.81069 18.2535
2.04106 0.72507 4.97497
0.784694 2.03321 14.8433
2.78968 11.6811 24.9436
1.74722 3.82349 35.353
3.47838 3.23561 5.5413
0.832719 0.898301 12.6948
2.13576 2.8352 14.7893
2.92176 2.32756 6.25129
1.34483 4.615 5.94921
0.215732 5.39062 38.3673
3.11445 6.16601 20.9299
3.28341 4.52597 3.64784
0.707773 1.76226 7.1199
1.61467 2.04393 10.3492
1.657 3.42205 8.28987
0.633732 0.736202 4.72606
1.67239 5.49436 39.0105
3.11461 7.18047 10.4255
2.32192 6.03273 7.99553
0.774002 2.98708 16.5427
0.738328 0.175671 1.54476
0.60409 0.506744 1.5597
0.336635 1.27872 8.82291
1.26948 3.19538 27.5783
1.79308 9.34383 24.5239
3.11585 3.1948 8.63837
0.372756 4.75423 36.5253
4.99528 11.7214 22.1626
1.36613 8.32976 16.1132
0.87198 4.13416 16.9896
1.02043 1.95381 10.7739
1.25026 0.700807 12.4443
1.3247 4.26793 26.5859
2.91665 2.80425 2.6763
0.90152 7.1839 46.3465
4.27221 7.13282 39.7767
4.9038 11.6002 11.0721
1.27154 2.78583 11.9285
0.976831 3.20287 3.84984
0.418226 1.54489 16.3855
1.08853 6.90582 25.1971
2.57663 0.576441 13.2338
2.51788 8.29464 16.6467
2.01005 1.16634 2.57373
1.26889 1.16175 2.17034
1.23842 8.56299 41.0851
3.06713 4.85219 11.5899
1.36466 1.35697 0.747631
0.572903 3.33928 24.6674
3.91233 5.4369 6.69449
2.12453 18.1305 48.7458
1.25388 0.455034 3.53187
1.86341 13.1697 62.7952
2.00723 1.61186 3.54379
0.267741 1.18906 18.388
2.55871 7.31975 41.9593
1.75889 9.7909 26.9966
3.71574 5.81849 8.34381
1.39071 4.30837 12.6545
1.13578 5.65043 36.2266
1.80932 3.32455 13.2298
3.00412 6.19143 11.1374
0.488903 5.95188 20.2679
0.769013 2.71151 22.2978
1.4881 7.2875 21.5374
0.545837 2.62302 6.82013
0.322157 4.58938 31.2299
2.61009 3.98948 6.12978
0.930095 1.40449 16.1746
2.67641 4.52457 13.0165
0.899562 2.7841 8.72653
1.07707 5.2429 23.0998
0.557154 2.6947 13.2148
1.05831 5.48186 6.28
0.811108 1.02737 10.026
1.52228 6.40781 23.1306
1.0914 3.27997 27.1884
2.09936 7.51764 9.35882
0.877479 0.578806 8.3608
1.75444 8.94156 32.1416
0.839496 3.98403 28.4695
1.90139 4.027 6.61097
0.979315 2.56077 3.78048
1.1597 2.75937 2.70113
0.40713 5.74615 30.0064
2.98034 2.81721 21.45
3.16759 10.9158 39.1922
2.56687 6.78175 23.4183
1.59699 3.65818 6.32157
0.632887 0.539241 6.64935
0.727541 1.6851 19.6956
3.06742 7.6054 28.7939
2.54826 10.3013 8.71269
1.01071 6.27328 38.1794
1.73644 4.94534 37.036
2.20627 2.69994 3.13157
0.456847 2.38234 1.60218
0.575129 2.29095 23.0631
2.27755 6.07039 47.0593
5.37429 9.19937 15.6689
1.61355 4.85726 2.62504
1.03581 3.91536 17.4289
1.02209 3.59548 12.1641
1.33327 6.73188 33.6486
2.56317 8.6095 16.7031
2.21706 5.01014 7.37178
0.405163 3.6444 20.4308
1.535 1.96348 22.605
1.80723 9.88036 20.8609
1.41553 1.04381 14.1493
1.58958 2.965 11.4667
0.379254 8.09356 24.8494
2.76417 2.51111 23.3115
3.34471 2.15396 20.8242
3.27692 6.54835 15.3191
2.33797 9.60224 9.28511
0.293403 8.75764 39.46
2.35458 2.25108 7.07122
0.671729 2.00586 27.4374
1.66123 8.69549 16.3491
0.781454 3.56581 33.5966
1.56591 5.76991 8.54014
0.710237 4.59435 25.9881
1.4141 6.23939 5.20803
0.93008 3.23191 18.3227
2.04673 0.471066 14.4161
2.44062 4.80978 14.3501
1.02191 2.40742 37.5704
3.87225 11.2545 12.8793
1.35797 1.8115 10.5861
1.69668 1.95517 2.97094
0.281828 0.45369 6.16905
1.27714 4.21255 16.6512
1.50398 8.24508 14.1535
0.269926 2.46122 19.3103
0.772783 0.543224 11.5384
0.718188 3.96155 17.7521
1.94138 5.29944 13.2357
0.741209 1.79338 17.0473
1.19731 2.71636 7.04558
0.709367 1.26376 10.9428
1.22035 4.50631 36.2628
1.20514 5.56513 5.36094
0.545878 2.97666 8.37277
1.04327 4.28268 33.5849
4.2813 10.8961 23.1126
1.60997 4.43268 42.1258
2.0387 3.38862 31.6192
3.07145 9.17272 13.4201
0.646429 7.35069 21.2974
2.13668 1.63933 11.6822
1.55898 8.93843 24.431
2.61759 4.94394 13.687
0.788437 0.650266 7.75001
1.20756 3.26331 9.34272
0.607899 2.6441 11.6718
0.544658 1.55442 27.0877
1.99461 12.644 37.3297
2.12849 2.41862 10.8348
1.19767 2.42184 16.9044
1.4565 3.6493 2.1526
1.03236 5.28342 29.8541
1.53883 6.63801 19.6775
0.772542 4.9576 5.71537
1.17785 4.05244 15.3817
1.0094 8.39281 28.3524
3.00422 5.94207 37.8958
4.08134 3.28664 10.4249
1.95552 3.75956 8.67934
0.277232 4.67674 34.4999
2.88566 5.41254 3.58048
0.989992 2.24641 11.0721
0.273589 3.48104 13.7191
2.02137 6.70686 19.7459
1.04452 4.52375 5.57163
0.529222 6.89396 18.3658
1.93897 2.48907 26.9346
3.62746 5.55225 12.1079
0.797599 1.42053 4.31612
0.945469 1.76896 19.7917
2.02051 4.16331 20.1924
0.467537 3.4656 20.3419
2.41956 2.71656 12.3014
0.616754 2.42844 10.7306
1.25882 2.84236 8.54713
0.110809 6.5433 43.0144
3.90466 9.33496 12.0065
1.59988 4.2417 12.9464
0.389352 3.07043 37.5528
3.42295 4.4673 13.0977
1.56231 6.52109 4.07754
0.900852 6.55467 18.8947
1.35431 2.44349 16.4509
0.913773 3.85075 15.6328
1.60373 0.373206 8.88509
0.715167 2.46718 31.2434
2.47378 5.35051 6.31591
1.30635 2.53088 12.755
1.09577 3.18028 11.5738
1.67031 6.57531 23.0436
2.40791 1.69838 3.11451
0.737162 7.34273 29.3436
2.84221 5.90984 55.2837
4.77971 9.8281 11.8787
2.09693 3.33721 13.4665
1.86722 10.3448 17.6799
1.61283 5.01648 30.8957
0.666645 6.32335 17.6093
2.39802 6.68474 30.5862
1.78465 2.93433 21.0713
1.9587 2.50767 1.31885
0.433661 0.400645 2.76472
0.84775 1.47853 7.48423
0.70247 4.37024 31.2276
1.69557 8.82179 14.8519
1.08272 4.27913 35.082
2.57936 2.68265 13.8806
1.28092 4.25057 8.26972
1.60024 0.0322613 20.0034
2.75032 8.63444 4.29814
0.757936 4.80669 29.2847
0.835763 3.2489 8.78716
1.30525 4.01534 14.1427
0.476333 0.810957 5.21723
0.576602 2.19148 6.40723
0.476632 3.53744 15.8946
2.23736 2.3481 15.3709
1.16194 8.71342 28.706
1.11442 5.39347 14.0478
2.33758 1.70594 26.3513
2.77788 7.6449 12.5574
1.09886 1.74198 5.34146
0.25129 3.31995 47.4995
2.90817 13.634 25.3788
1.13631 1.05098 31.0279
1.33746 6.73826 7.33321
1.10716 1.51294 2.62182
0.556064 2.36505 16.1479
0.378262 9.18173 35.9243
3.9479 9.92911 14.4861
1.44099 3.13697 32.9585
3.12523 1.48135 20.8737
3.29594 7.35258 4.41687
0.0369405 1.76444 8.96533
0.278071 1.62427 54.2894
2.39094 11.6152 4.37688
1.15598 5.77376 19.3297
1.83463 0.464466 9.38522
0.718726 2.57322 2.65035
0.887041 2.13009 10.9709
1.71551 0.392229 8.32248
1.06659 4.76374 6.51277
0.426582 3.3531 22.0944
1.6193 4.62499 19.29
2.64628 5.81505 28.486
2.18126 2.96762 4.60533
0.927452 0.859571 3.14457
0.941485 2.31282 10.1541
0.979828 3.67277 20.4583
2.38361 4.72923 10.3184
0.869169 6.37994 33.4835
1.43525 1.71277 20.635
1.24469 5.96965 9.95963
1.76494 3.46536 9.51421
1.68776 2.59694 6.34893
0.647918 2.62772 12.0598
0.621111 4.77047 29.5198
0.67953 4.26554 9.22029
1.13028 1.3139 22.466
1.01139 5.06694 18.8348
0.587364 11.7446 23.2459
3.21826 7.26244 33.8589
2.94988 4.48582 6.60573
0.545951 2.51131 13.9619
2.23508 5.40755 10.3305
0.724475 1.29518 16.9222
1.55973 2.69278 10.1725
0.504904 0.663195 9.39743
0.278317 9.57815 28.193
3.5078 4.15262 34.1813
3.59734 3.68569 5.62013
1.15976 6.07616 20.0634
0.90202 5.02902 41.3361
3.60174 4.99188 20.2067
2.36388 9.11875 22.0451
2.13077 1.7051 7.16441
1.41455 0 0