# pn-170911/RbIIA-37-PTBB-1280-1959.psd
# Power spectrum* (dif=0,1,2) (really just |FT|^2)
# NOTE: only the first half! (symmetric)
# weeks: 1280-1959
# 3 clock-days, 0 excluded
# PSD: 1441
3327.03 0.17856 0.0130695
93694.5 1.74247 0.000251801
830467 24.6893 0.0010232
107911 4.00912 0.000400655
61913.3 2.99864 0.000188228
22259 1.55052 0.00028852
12194 0.7139 0.000494636
12856.8 2.55 0.000526823
11051.5 3.11799 0.000916775
8324.06 1.70222 0.0014546
14777.3 5.02533 0.0021155
10648.5 1.89828 0.0015322
7920.13 1.741 0.000837505
7424.9 3.07563 0.00242598
5225.01 2.9491 0.00241028
9296.02 4.98591 0.0049486
3629.37 6.24941 0.00580888
788.252 1.42805 0.00243467
3783.35 2.09866 0.00308569
2013.83 2.81502 0.00497759
2667.1 4.2684 0.00801638
3506.62 5.20609 0.00903117
2349.55 2.20236 0.00678958
1596.55 3.09687 0.008038
739.048 0.556214 0.00175567
585.615 1.4248 0.00357006
2250.06 5.54525 0.0185926
909.779 2.17002 0.00981013
1391.05 2.70849 0.00946021
1888.01 4.92421 0.0189163
1254.35 3.38105 0.0114802
1195.98 4.77436 0.0249549
1688.91 5.83787 0.028385
1816.78 5.64219 0.0287896
1610.06 4.54541 0.0218588
910.745 2.8705 0.0174133
326.397 1.3744 0.00936311
795.753 3.29371 0.0206334
580.08 3.26825 0.0256314
444.796 1.86449 0.0111154
372.459 1.72989 0.0150618
694.335 3.13193 0.0239777
648.912 3.56257 0.0323794
591.119 1.3558 0.0134412
561.699 2.58888 0.0240765
764.84 3.40008 0.0323613
374.772 2.19494 0.0212918
623.645 7.45569 0.0783358
811.782 4.34274 0.0494911
174.804 1.38636 0.0180122
511.243 7.73288 0.0923213
340.563 1.9277 0.0276469
132 3.29687 0.0405157
198.298 2.14693 0.0332886
459.885 2.21488 0.0290451
394.96 5.61898 0.0812825
292.548 5.91357 0.0888939
606.991 5.3326 0.0842412
175.38 1.94322 0.0313853
456.787 2.46923 0.0392256
247.811 6.0514 0.106293
414.909 3.0703 0.0484452
754.049 6.11555 0.108536
438.107 5.6412 0.113056
223.262 1.1634 0.0253055
349.516 2.64979 0.0499579
230.799 2.07938 0.0465905
379.693 5.51458 0.125671
200.682 3.33819 0.0721785
577.762 7.07585 0.161586
299.763 2.77623 0.0653879
200.079 3.84242 0.0858735
166.2 4.19113 0.11133
313.373 5.48885 0.131475
80.6781 4.07354 0.103633
68.7062 1.37977 0.0398123
147.401 1.98885 0.0551227
72.857 2.51253 0.0655188
176.208 3.99595 0.119404
120.773 3.66825 0.11312
321.93 6.0124 0.179678
213.766 4.90497 0.155044
157.127 1.87693 0.0571987
79.3716 2.24017 0.0753121
379.412 7.72256 0.260201
169.236 5.69593 0.205438
283.822 8.81558 0.306383
197.002 2.98446 0.101286
65.4922 4.32486 0.15876
156.376 3.01809 0.114545
149.261 3.17899 0.138275
155.472 2.68762 0.106504
78.0382 3.34438 0.124388
226.11 8.72864 0.38193
60.0429 2.53497 0.105854
183.097 6.53757 0.260147
181.908 4.55937 0.214029
42.675 1.90437 0.0748291
126.854 3.91237 0.178823
184.549 4.27445 0.208061
60.5595 3.29856 0.167824
93.8784 2.21206 0.130077
63.0617 2.05923 0.0845562
170.021 5.76909 0.305153
92.3833 2.32398 0.104756
71.002 4.66421 0.252903
126.576 5.74189 0.319652
76.1934 1.88715 0.0988959
127.938 3.33819 0.179603
43.4606 2.65034 0.134983
33.7548 0.619608 0.0390163
34.8706 1.04163 0.0609563
76.1148 1.61312 0.0919035
109.042 3.74519 0.227139
32.9583 0.466752 0.029438
121.592 7.50749 0.503737
99.2956 2.23696 0.152132
112.594 5.9363 0.388656
53.5942 1.14914 0.0586409
53.5718 3.96113 0.254693
102.395 4.01944 0.291866
18.1306 2.5449 0.172847
127.476 4.94313 0.338313
58.1251 5.62525 0.403696
50.0236 1.56205 0.0961392
28.0792 4.57136 0.341794
8.28765 1.8913 0.169479
79.0124 3.33965 0.219956
65.0297 6.32198 0.527907
98.094 5.19037 0.398342
51.9389 1.11221 0.0752123
38.4256 2.23931 0.167789
26.1527 1.8768 0.161146
110.703 4.89995 0.428053
44.5251 3.24716 0.279987
120.916 8.83623 0.716073
55.4708 4.14307 0.422407
68.2852 3.32369 0.275594
49.7877 0.778171 0.0587237
93.6604 3.73786 0.317055
108.098 5.52062 0.510722
55.1891 4.60648 0.438744
43.347 4.79168 0.448775
66.0596 2.84156 0.267845
49.1861 3.87389 0.391903
29.1376 1.95713 0.216089
17.8665 3.58186 0.383384
105.616 4.81343 0.415365
68.5859 3.98682 0.387782
78.3773 5.54678 0.589059
39.2636 3.17877 0.382234
80.6237 3.83816 0.361283
152.082 11.6117 1.27364
60.3115 4.01364 0.462605
8.80472 1.68357 0.19406
48.7127 3.15588 0.317116
109.473 5.29603 0.544312
46.5256 3.45548 0.414218
87.7749 5.52321 0.647299
52.3353 2.50779 0.352883
73.0843 6.87403 0.791757
14.1141 1.58404 0.250407
82.9485 4.51597 0.550506
90.9299 7.19229 0.887396
42.4168 4.2944 0.531304
90.8782 6.58318 0.906612
31.5525 1.97784 0.286165
84.4389 7.41263 0.830417
40.3038 6.18133 0.797648
66.1531 5.3386 0.777153
28.7562 1.35317 0.207884
69.2384 7.55947 1.15504
67.3122 5.25765 0.73529
50.6675 7.9505 0.952469
23.6461 3.9923 0.570336
41.4207 5.5217 0.848993
71.6534 9.99695 1.41127
28.1287 5.2642 0.858994
52.2148 4.31507 0.583897
32.2593 4.45928 0.711898
29.719 3.68486 0.548925
46.4335 4.66148 0.699396
13.8875 5.83186 1.01158
45.601 4.08552 0.519952
37.1518 5.88386 0.971029
18.9242 3.7314 0.738707
33.5663 2.3336 0.328989
36.8266 5.26779 0.821507
40.2795 4.91411 0.822111
106.264 14.4535 2.57195
68.1663 6.09447 0.834759
28.6402 3.0454 0.565134
95.8817 12.25 2.12779
30.3891 1.7741 0.363748
33.7664 3.5374 0.628014
22.5139 2.15645 0.322886
41.8707 7.70086 1.59599
91.0535 9.47226 1.43056
41.7668 3.59594 0.655897
101.112 10.7202 1.91487
41.9351 3.60228 0.727732
54.7155 6.83001 1.20405
65.9364 7.87327 1.6097
21.5539 2.83167 0.497055
29.2368 2.14741 0.42877
26.9171 5.06877 1.09427
32.8566 3.31432 0.850477
44.6561 9.29002 1.65319
21.1178 7.6622 1.65427
56.2292 8.95261 1.69614
17.5842 1.78606 0.473521
21.6735 3.29891 0.768724
75.3292 8.47827 1.52555
57.0026 6.31735 1.29109
40.7371 5.37592 1.17743
10.1424 0.726346 0.132894
26.9876 5.83477 1.37392
23.8204 3.94411 0.957514
71.6184 9.6099 1.79824
94.0762 16.7252 4.1848
27.1274 4.57229 1.0243
38.5621 5.83547 1.79987
54.1518 8.38863 1.78444
41.096 10.9193 2.35758
14.9425 3.68147 0.966457
16.509 5.10906 1.01439
39.6891 4.72697 1.21727
4.33643 2.81437 0.537878
26.8437 5.41046 1.35874
21.7924 6.19145 1.42494
26.2008 4.73264 1.28049
26.253 5.29252 1.36373
25.3771 2.94601 0.782492
12.4255 3.19054 0.835054
5.866 1.51333 0.361061
55.3264 8.12156 1.94934
21.8926 4.00857 1.35066
12.6261 3.25059 0.755962
17.5615 7.22605 1.7772
22.1875 4.07733 1.30553
19.939 7.79344 2.08084
24.1742 11.7975 3.25222
46.8561 7.90065 1.76829
14.2214 6.20923 1.7994
14.8726 1.10541 0.342487
59.646 10.4815 2.81344
34.2299 6.65656 1.98446
27.5328 9.3751 2.64092
31.7291 3.61065 0.782296
13.7129 4.21313 1.12448
30.5613 7.53585 2.59224
19.7723 1.59552 0.280662
55.0164 8.79096 2.28322
38.7136 6.76207 2.52798
37.147 13.4202 4.04105
25.3854 4.82318 1.44266
4.37704 1.4503 0.465623
12.1037 2.56137 0.682452
11.6795 3.37473 1.14925
21.3567 8.50772 2.16733
10.6661 8.21389 2.7984
14.6935 1.34588 0.326
36.7007 6.55742 2.28533
14.2138 9.2706 2.90341
18.7536 5.985 2.13511
38.2692 5.95448 1.71309
24.2346 5.5108 1.62984
35.0295 7.8765 3.20172
46.3894 9.4513 3.31327
21.4526 7.15129 2.40821
30.7253 6.1301 1.82957
36.1512 13.1501 4.08236
4.08135 3.71273 1.07171
15.6847 8.38313 2.85029
36.3389 16.226 5.70033
31.474 9.07996 3.29918
18.0626 5.17233 1.68314
13.3893 3.92694 1.48592
18.8305 4.47813 1.69328
32.2466 5.5049 1.95144
19.3227 3.23342 1.45929
5.33601 2.22534 0.779085
43.4602 19.9135 7.55167
12.1609 1.69787 0.354296
25.2703 11.4282 4.28823
57.5901 13.4769 4.67772
30.2079 6.69199 2.58233
42.7993 12.6286 3.92286
51.8315 20.992 9.20217
21.0713 5.83256 2.3688
11.9525 3.27519 1.03868
19.4966 10.321 3.77393
22.8746 12.5801 5.45286
11.9098 2.22186 0.989969
31.3438 7.38891 2.69564
20.3554 8.08386 3.51171
20.2386 8.56259 3.08032
17.1518 2.46233 1.03205
6.63081 2.8326 0.796867
4.46847 2.00417 0.767208
2.82109 3.37429 1.33898
25.589 12.9847 5.51518
10.6682 2.37942 0.875199
29.8381 15.8016 7.69974
37.6674 5.9277 2.07118
24.2801 9.15217 3.80733
7.83148 3.92575 1.82365
29.9537 9.52029 4.27351
7.53484 3.39394 1.00402
15.6844 6.79611 3.13025
23.5063 7.36131 3.37164
12.3175 2.88697 1.63137
16.9854 5.32688 2.07787
4.62103 3.03507 1.47944
6.82777 1.99762 1.26918
5.91483 3.11289 1.14954
12.8407 8.08157 3.92677
21.0046 11.1905 5.94391
47.6219 10.9195 4.16344
41.6722 13.3728 5.85116
14.513 6.19415 2.83603
10.9288 4.89564 2.25042
20.8528 10.3585 4.84351
10.0295 5.50082 3.37089
19.3757 4.48714 2.02151
21.628 10.2101 5.16887
17.6785 4.96122 3.4332
18.9576 10.324 3.45491
5.87422 8.35915 4.65899
18.3357 3.62256 1.75626
8.45493 3.58032 1.55987
18.1191 3.51382 1.49708
15.2459 6.49018 3.34435
11.3091 8.5879 4.7907
14.2664 3.73481 1.24048
21.2376 10.4426 4.63889
7.22528 1.66421 1.03448
10.7698 7.16 4.64019
19.8896 6.26024 2.08462
10.1027 8.68901 4.64887
7.83256 4.19119 3.47768
24.2223 6.16664 2.40159
4.21242 1.70401 0.864731
8.42129 5.38494 2.85786
11.6411 6.58256 3.8131
3.12977 5.56125 3.91133
16.4041 8.61647 5.77107
23.1752 4.77699 1.77035
23.7918 6.55347 3.69708
23.2317 5.5556 2.70756
25.8284 8.03848 3.57294
18.3268 5.6815 2.75461
17.4519 4.57578 3.10567
17.9076 7.2113 3.34829
15.2571 3.54952 2.15899
6.45847 3.10938 2.02568
5.14775 0.679214 0.92695
8.1995 7.06574 3.29302
12.0818 6.20196 3.43442
19.9858 6.72254 3.53911
21.0924 8.29494 5.85895
11.0017 2.51621 2.32887
12.58 4.61672 2.2393
25.8191 10.329 4.8798
16.7493 8.22606 6.06675
5.94934 2.38763 1.25425
16.7916 10.6453 6.25832
9.92275 2.78292 1.28351
10.3274 7.80323 4.62868
11.2499 3.89971 2.76744
16.9669 5.21324 3.2783
21.8688 8.93059 4.96813
4.94055 5.03538 4.13591
11.5912 8.19597 4.98284
8.88534 1.84864 2.03261
26.2298 13.7478 7.42706
13.5582 15.8722 11.7317
24.7974 8.6269 5.23581
15.4094 4.84819 1.99832
7.52354 5.49446 3.59154
12.619 4.21332 2.46275
6.34523 4.50299 2.4911
9.26478 5.87988 4.2165
3.20632 1.45645 0.731367
10.5896 5.11566 3.47644
6.52683 4.46564 2.76255
13.3815 5.90531 3.88878
4.95288 0.327726 0.455696
10.8189 4.83063 4.37322
14.8783 4.64426 2.3358
5.39223 2.65824 1.73574
9.62917 6.57345 4.08018
8.56066 1.55792 1.12726
3.45558 3.33529 2.97863
14.5231 7.73819 5.29075
16.1607 7.26047 4.55925
5.57911 3.85566 2.90092
9.97113 5.16551 4.27591
20.8842 7.16784 3.53002
8.68637 7.68253 5.70089
9.67635 3.79852 2.97936
4.75027 0.842798 0.590003
10.7762 7.0876 5.97408
4.93038 2.30266 0.737932
9.41043 6.32991 5.19682
4.49085 1.74605 1.30731
11.3739 5.0197 4.11892
4.47182 1.68699 1.04834
4.1134 2.88045 1.68032
4.63812 4.26677 3.59336
2.26462 1.34244 0.897747
3.70221 1.79605 0.968685
4.34176 3.39384 2.84593
2.17763 3.33154 3.34363
10.8932 8.38305 7.88209
19.5952 7.855 4.14621
8.70499 2.48235 1.94302
7.95985 5.71824 6.51148
15.0846 5.69841 2.37695
18.0434 8.93404 6.90747
10.0208 5.6682 5.56547
6.2159 3.09029 2.09503
5.57447 4.56781 3.49482
7.91801 2.9282 2.28999
8.21774 3.98997 2.28889
6.59637 2.60106 1.66512
11.9265 6.82469 5.04498
5.93885 3.1071 3.19403
8.23723 3.14367 2.68136
6.04424 4.12868 3.92034
11.6226 7.49274 4.31621
7.58495 11.8584 10.1412
8.84934 3.42378 2.72478
2.74502 3.66813 3.52935
4.45654 2.98382 2.99915
16.3697 9.08224 9.22397
11.77 4.96886 3.13972
9.03204 7.55522 5.63894
7.74035 3.5917 3.51679
10.5377 3.4658 1.97375
16.5467 11.0437 10.7312
6.19642 5.04175 3.6267
8.07427 5.57882 3.67231
10.0839 8.23422 9.00828
17.3116 10.924 8.15891
5.14649 1.1767 0.835735
3.65338 5.03036 5.96793
6.90142 3.36017 4.04095
17.3607 9.01969 7.06452
17.0546 9.97949 8.4459
6.04487 10.0295 9.71083
12.8296 5.49442 3.04121
10.8074 6.24054 5.87886
6.56877 4.74749 3.99557
8.98766 5.846 7.50686
5.65059 3.66763 2.61616
5.42333 4.14398 4.76873
3.33243 4.86685 4.19108
3.79386 6.34924 5.03558
10.0649 6.60031 5.99919
3.92438 1.01887 0.460209
15.577 14.7826 13.5977
2.28362 2.51493 2.8474
7.68793 3.59304 3.10048
5.3956 4.81806 4.54567
4.88706 5.3811 5.34933
18.022 12.0716 10.0756
3.26697 2.59371 3.4993
9.71393 4.44207 3.42714
9.99562 6.97025 7.34976
8.06836 4.11882 3.99243
3.21873 4.30694 5.84976
10.107 4.51314 2.22674
5.80696 9.08326 8.53342
14.3309 11.9706 12.871
7.02057 3.39618 3.38276
8.01577 4.90218 4.11489
4.32396 3.1979 2.56182
4.55465 3.45393 4.02117
5.56878 4.42849 4.5156
14.5461 10.4074 9.71867
6.0075 2.4468 3.90623
8.64569 6.79172 5.30942
2.87541 2.19581 2.70871
4.28509 5.70657 6.35528
3.6994 2.74595 3.07963
4.23486 0.648757 0.411614
8.79455 7.57725 8.68612
5.82511 2.39308 1.39332
2.24227 0.763947 1.3988
5.45328 4.86165 6.35357
13.8661 8.14983 6.5148
4.51472 4.5086 4.84181
1.80298 2.8947 5.03148
4.43494 3.90087 2.24509
5.25998 6.96857 7.30821
1.45828 4.75313 6.87125
6.35321 7.07618 7.80526
9.75121 7.02908 7.73991
12.3441 11.884 11.9805
7.00297 3.97839 3.82249
2.22193 4.91827 6.50346
9.02722 5.25592 4.29358
6.97202 5.25478 5.00189
1.75577 2.25212 3.59273
4.7916 4.1193 4.08492
3.25835 2.43562 2.76953
1.80463 3.11422 4.19226
5.89412 2.29213 2.80301
5.46876 4.20333 4.79361
4.14979 3.58937 3.00425
4.02566 2.43226 2.99101
5.96074 4.60941 5.344
9.29628 4.30434 4.32253
2.43872 1.83086 4.75395
11.4356 5.48939 5.44917
2.0477 0.79912 0.390517
6.94352 5.55616 6.04426
3.14482 4.68156 9.101
8.07875 7.0036 6.03797
11.5906 7.36522 4.46859
8.49576 8.02015 9.18846
2.27792 3.08436 5.70965
6.77369 7.06801 6.63486
3.53177 1.59626 2.60242
9.37881 8.58022 12.3376
9.53771 7.05796 5.88577
3.43039 3.89558 3.77994
4.30791 5.32233 5.72924
9.53642 9.17074 12.0432
11.3341 5.45637 4.91047
5.03814 4.78619 9.06035
1.8707 1.473 2.11118
10.3641 9.53042 12.7184
10.5832 10.8741 8.98789
2.46882 3.9576 5.23102
5.57503 3.86719 3.81639
4.22553 3.14614 3.47699
1.3318 4.35166 5.24428
8.02133 8.64824 12.1927
2.0485 2.09955 5.11158
10.9759 6.85979 5.31656
4.31341 6.53783 8.3244
3.12109 4.94295 7.94175
10.9914 5.79317 4.48172
2.4568 3.2975 4.35576
6.0405 6.15418 6.79419
8.40389 8.39552 11.3261
3.31491 2.70807 6.87591
7.43957 7.26442 6.2738
1.97883 0.653776 0.372773
7.13095 9.23198 11.985
1.74259 2.02558 4.05472
5.16438 4.02985 3.77402
4.49746 8.60005 9.66723
6.99428 6.92013 8.3707
1.8592 5.94586 8.67616
5.86954 6.47461 10.2375
5.02356 2.92851 1.94094
2.81222 3.69318 4.65232
2.10646 1.6386 4.5941
6.93874 3.69059 3.81274
4.83413 3.40482 4.23428
3.82608 1.40529 2.61686
6.36279 4.76736 5.50048
4.76756 3.09092 3.68619
3.40413 3.70621 5.79746
1.69103 1.93103 1.3126
3.1115 4.48167 8.41779
1.70476 3.65778 11.6367
15.988 11.123 7.89504
4.62564 4.77258 6.30121
4.63229 9.12466 12.6644
5.53876 5.08549 4.96199
4.34342 2.71532 4.37493
7.20026 7.40358 6.04466
7.49364 13.6496 21.1352
7.71342 4.8308 8.59567
5.41355 4.40135 6.46597
5.21055 7.46421 11.1141
5.556 4.32754 3.0296
2.41624 4.38222 7.56853
4.35562 5.06122 8.56079
4.65332 2.17429 4.22854
5.04754 6.07538 5.83932
1.42344 1.98802 2.83601
1.64324 3.33301 5.63097
1.53496 0.208105 0.743066
3.61703 2.76726 3.84453
3.08127 5.34655 9.10269
3.97922 4.37302 4.93904
4.68039 6.13708 10.9373
8.81357 7.88898 10.7489
5.15887 7.67861 12.3291
5.60824 11.4691 15.4304
5.00176 6.00155 7.6357
4.62927 3.87334 5.76033
3.3479 1.71466 3.29434
2.00307 3.67248 7.17336
7.85343 4.64905 7.03712
3.71363 3.78955 5.21609
4.25076 4.24472 5.81476
1.67737 4.53113 9.18616
6.0541 3.11988 4.56006
4.83798 7.26666 10.0276
4.11839 6.07064 10.7769
3.22758 3.65236 5.53339
3.77018 4.35749 9.13936
4.15255 2.52223 1.92313
4.37184 2.96964 3.21108
4.64555 2.80847 4.27228
2.3376 4.5513 6.84463
1.8275 5.19407 9.16682
8.30049 6.76356 7.45967
2.36373 4.88864 6.83106
4.39199 3.82331 5.42573
2.50089 1.26662 1.65708
4.49753 3.57944 5.8026
1.80779 1.34015 4.21588
2.81441 4.72122 5.98777
2.29746 1.68393 5.26878
8.84502 11.0577 12.6322
2.69644 2.56427 7.21519
6.54045 5.89958 3.79325
5.46568 7.09167 7.61333
6.74121 12.5461 22.4897
1.11901 1.0035 4.66819
2.84576 1.91582 4.2699
4.15996 4.51589 9.77884
3.00755 5.62546 7.38046
4.29261 4.01033 6.19406
2.22099 3.32003 5.38897
2.54716 2.02495 3.48297
2.16972 2.53616 2.94545
0.490607 4.18048 8.03477
2.9922 0.658069 1.95715
2.14086 5.00041 6.8416
3.20335 4.16867 4.07675
1.36054 1.40086 2.91803
1.87062 1.48306 3.13772
0.688688 3.09703 7.81798
6.09906 6.13257 5.76929
3.4752 2.27697 2.52209
6.81617 13.0456 21.0164
0.610792 2.49236 3.98528
1.16607 3.36251 8.57952
4.32967 4.4744 5.95728
3.86663 3.35543 6.66327
4.18806 2.36087 4.32068
1.82959 2.73542 6.73346
3.93318 4.90465 6.0104
3.96318 3.84014 6.05346
2.26667 3.13205 6.45905
4.54261 6.05657 10.268
7.28716 8.01995 15.6037
1.11371 1.81067 3.52544
1.77832 3.53257 3.41899
3.1172 8.36182 12.81
1.98515 3.03879 7.66553
3.22918 1.38368 1.78451
3.1512 2.78165 4.49123
5.69729 4.62949 7.09957
2.08744 2.82026 3.34223
2.32727 4.13829 8.90978
0.673858 2.19094 4.9724
3.44396 4.31581 7.96382
5.38528 5.72217 8.46555
0.890318 2.95086 7.61473
1.45338 3.63552 6.41028
3.9745 1.29395 1.16423
2.0106 2.2438 3.13539
2.60381 3.59276 9.13686
1.32751 0.93636 4.75558
4.72725 8.915 13.0072
2.61693 1.6868 6.73557
3.1926 7.58453 10.3771
3.46269 5.48132 6.89717
1.03824 3.50259 8.45201
3.42867 2.71633 3.76251
1.53367 6.92372 14.8378
4.78098 3.16965 5.70511
4.28079 3.1448 5.03995
2.00755 3.44539 7.16968
4.83682 3.17497 3.99363
2.13956 3.10926 8.88442
2.77401 3.99435 6.47134
2.01116 2.81533 4.38573
2.17721 2.19644 6.399
4.39185 1.75871 2.0163
4.33843 4.99087 9.75206
2.52458 2.40115 2.76648
1.27334 0.674051 1.10095
2.68785 2.9801 7.60493
2.48419 2.91455 4.93955
0.393253 2.46412 5.4781
3.44861 3.87515 8.54069
2.51306 8.46782 12.5967
2.84949 3.38095 8.83014
4.26885 2.65394 3.69504
2.05996 3.8718 4.52876
2.1727 3.77734 10.9376
2.85862 2.64345 4.25396
0.729004 2.65934 7.18306
3.00499 8.13146 24.9662
9.51306 7.84717 4.93581
2.641 5.50061 7.61158
3.5479 4.24955 7.04516
2.13099 3.59267 7.09963
0.918073 1.3398 2.73901
0.686055 1.8136 5.73705
3.03579 2.4203 7.54851
4.06544 6.71163 11.2923
3.48859 1.86192 2.5127
3.77856 3.28511 7.47542
1.99649 5.20365 14.8756
5.63214 9.37763 13.6478
1.11474 1.57844 4.44899
3.01254 6.22679 14.8755
2.62786 3.58766 7.83112
3.61938 4.10517 7.98297
3.41236 2.05854 3.73332
1.13583 0.620764 5.10583
2.41373 4.25714 10.3266
3.689 3.16692 13.4562
9.26961 6.17703 8.38198
10.5932 16.2723 23.6608
2.14784 2.60755 5.65693
3.42738 4.01743 5.69993
1.73107 1.87076 5.52986
4.31503 3.45626 6.48477
3.1396 6.34914 17.1419
7.85249 7.20177 7.30147
0.985648 1.58502 4.21065
2.52688 5.39006 8.7094
3.29473 4.30487 9.6627
3.71852 3.38882 6.80809
3.63792 5.53052 12.9522
2.90012 3.58928 8.24375
3.03016 3.49108 7.75843
2.45853 2.70787 4.82798
1.02259 3.62186 7.53051
1.65159 2.04698 8.99899
1.0547 5.3181 17.44
4.59017 3.434 2.41766
2.35465 3.1262 5.33333
2.0317 1.57905 3.44588
2.18686 1.9338 3.32623
1.85032 3.33551 5.68361
2.74137 3.92997 9.2375
1.92374 1.52205 2.80897
2.24803 1.98655 4.26138
1.58018 2.90438 5.90537
1.18764 2.5265 9.37418
5.03514 6.74642 14.3781
1.79281 6.3803 12.4614
2.6152 4.43004 9.75996
4.92389 4.15233 5.69479
2.06907 6.87823 15.4631
2.04086 1.82141 3.54482
3.51522 3.9608 5.64437
1.91911 5.14966 10.6928
1.11404 1.91912 7.48396
3.32613 2.44666 4.48659
2.45194 2.54631 6.19725
2.04939 1.6932 9.25298
4.11231 8.04692 11.4298
2.08066 3.03039 7.484
1.77636 1.60192 3.47322
2.70675 3.14282 3.88031
1.72521 4.30336 12.5684
1.78767 1.65309 3.11757
2.47561 1.10766 3.20825
2.95214 1.97729 2.36848
1.63624 3.10967 8.88892
4.48957 4.75076 6.07423
1.93103 3.24533 11.9727
2.12239 2.2554 6.31042
1.2521 2.65357 6.8372
4.21387 7.01908 12.6159
2.59331 7.08458 17.953
3.19883 2.73094 3.10116
1.41245 2.62837 5.04689
3.11206 8.49817 19.8892
2.03439 1.86554 7.60182
3.73522 3.49804 7.20453
1.7214 4.50785 7.09386
3.03251 2.75492 3.3485
3.46205 5.63354 11.8098
1.17241 3.60677 8.94238
2.75178 5.44016 14.3448
1.02503 1.07746 2.24504
2.21315 2.53105 8.21943
2.12463 2.87448 4.59247
3.04629 3.71993 8.47522
0.39565 4.04277 13.2173
2.85159 3.12472 9.88623
3.42721 5.3623 8.5273
0.692152 0.919588 1.12144
1.988 3.868 12.1748
2.6391 2.48351 3.28649
1.59217 4.92669 12.0863
4.10219 4.3497 9.68503
0.938726 2.85094 7.06165
1.90591 3.06392 10.0976
1.61352 1.64587 3.93623
1.12529 1.71446 1.91456
1.43267 1.83094 9.27442
2.96086 5.79472 7.26566
0.531868 2.60118 5.87717
1.82875 0.908623 1.32119
1.5321 2.85143 3.3371
0.569862 2.82302 9.33715
2.71792 3.29319 6.28849
1.05795 1.24179 2.18075
1.26436 1.76718 8.2678
1.5282 2.20338 8.00507
3.755 4.82382 7.96934
0.682365 0.9841 6.02225
2.36974 5.77535 6.75741
0.725077 2.71355 6.4677
1.07985 1.15129 3.37729
1.12474 3.16223 11.8823
1.79337 2.10383 1.80841
0.367071 1.25919 5.76285
2.02779 2.23111 3.29328
1.09088 1.60788 9.96894
5.69872 7.10899 11.9478
1.1009 1.11678 2.83945
0.854178 0.790139 3.96962
1.67921 3.44706 5.00118
0.489268 1.28538 4.84384
1.19391 2.20289 5.15787
2.21544 3.91476 7.84915
1.19727 3.05076 10.8896
2.26398 1.11489 4.70691
2.45402 3.61516 6.21641
2.68107 3.10412 7.85056
1.64608 3.54207 11.7747
2.94667 5.00319 18.7642
1.99049 3.55276 5.32671
0.235637 1.8937 12.6596
2.45739 4.91281 4.8373
0.501015 3.91524 11.0192
2.3215 3.30169 8.90014
1.44133 4.32873 16.8652
3.85056 6.35209 8.72337
1.58853 3.35491 9.68406
1.78484 1.98948 4.39898
1.33404 1.33284 5.15807
2.74155 3.54169 8.36241
1.41125 3.93501 11.0266
3.96161 3.33121 6.48846
1.06681 2.51173 4.34519
0.77372 0.944234 4.97962
1.76275 2.9849 6.54031
2.48919 7.01605 15.7235
3.71029 3.89589 11.497
1.82586 1.23721 2.05414
2.04296 4.25858 8.85366
0.859352 2.38501 7.53589
1.32827 0.690808 1.90697
1.38026 1.92597 6.35031
2.92935 2.5159 1.91308
2.04342 2.47177 3.977
0.904164 2.49825 8.53212
2.44823 3.33186 8.94267
2.73377 4.94086 6.21346
2.62931 5.68795 15.319
0.758758 0.638808 5.34525
0.969153 0.819815 6.12229
0.57509 3.67848 6.5798
2.8135 3.27315 7.64365
0.313432 1.97273 7.1554
0.576301 4.41512 14.1082
1.87849 2.96057 4.74208
1.11219 2.00067 7.61686
2.00638 4.58948 12.9472
1.9392 4.89682 7.27072
2.06735 5.4232 10.7944
0.961697 1.40679 6.66364
1.0359 0.445052 5.47911
3.44511 3.60629 7.27388
2.01309 5.44391 19.4328
0.955226 1.71056 3.96786
1.59073 2.11074 5.12117
1.58316 2.98651 9.73493
1.78955 4.21929 8.24158
0.971268 2.1027 8.71388
1.39543 2.00297 4.37369
2.31759 4.01705 17.5115
1.14068 2.72062 1.5754
0.480395 2.48162 6.1489
2.04557 1.6224 6.6772
0.511299 2.33714 8.2264
1.07799 3.40909 9.54629
2.29054 2.89667 3.26763
2.07363 9.20848 31.056
4.4571 5.05748 7.67787
1.22826 3.17352 2.81974
0.708277 3.25721 8.67712
0.444627 3.16929 5.0799
0.693837 7.50326 33.4897
3.93826 4.12088 17.7807
3.9287 1.01757 4.70733
2.47672 2.20185 13.7058
5.90586 6.9211 9.4502
1.76875 3.36767 5.32936
1.31928 4.87279 14.1024
2.34134 1.60054 6.6454
3.42136 4.75193 16.8403
3.33945 6.09787 8.78567
0.603289 0.868068 5.46549
0.845669 2.13423 15.4345
4.69747 5.03408 4.95893
1.4891 2.9649 10.1373
1.85794 3.5176 6.28094
1.27885 0.456687 1.84609
2.00621 2.70123 3.5036
0.726957 4.3395 8.88237
1.18026 4.48566 19.3184
3.81395 1.95944 1.49575
1.86738 4.15909 14.2916
0.837511 2.71231 9.98892
2.83773 0.87074 2.06916
2.59876 1.57669 2.27415
2.63997 4.23431 5.03894
2.18147 4.31984 10.9378
2.09826 5.88001 19.5872
0.972491 3.16059 11.4966
0.90524 3.30167 7.2387
0.201196 2.32864 12.1979
1.70354 4.96337 18.8108
1.62004 1.14733 2.80624
0.525924 2.16093 6.32193
1.54372 2.7653 5.04336
1.05151 0.812052 5.98422
0.315737 1.17358 8.12732
2.74471 9.12255 19.8374
1.88792 3.51493 10.4811
2.10747 5.47256 15.2009
1.85823 1.8752 8.9145
1.40002 3.49266 10.169
2.34019 2.1745 4.11536
1.35814 6.38899 18.0536
0.713609 1.49727 18.012
4.39983 7.61734 11.0585
3.09313 4.71468 8.33119
0.853721 1.22163 4.01882
1.19773 2.01974 13.8545
2.03538 6.26208 21.4207
2.83312 2.99076 2.87813
2.51746 7.01107 11.579
1.38173 3.65199 16.2368
1.61442 2.231 5.25409
1.08371 1.81834 10.9781
1.52732 6.78128 17.5874
1.11544 0.813529 8.5647
2.7743 5.1241 9.34344
1.33822 3.68126 14.7325
0.948749 1.42814 5.605
1.30385 2.82199 2.70286
1.34229 2.88474 5.07329
0.528045 2.13971 8.21206
0.765471 4.88716 12.2569
2.56961 5.36028 15.0189
2.11261 1.26477 5.02367
2.5385 5.0286 18.1592
3.92011 4.82165 10.5812
1.32985 2.75376 6.32842
0.377057 3.18261 11.9058
1.30518 0.974294 11.6271
2.31502 3.88 4.66289
1.90405 1.78606 5.73253
2.10826 3.71123 8.55564
0.244243 0.390326 7.75485
1.8139 3.92794 5.501
0.378487 1.75965 7.53206
0.930737 3.83211 10.0512
2.11192 1.06454 2.46632
1.09091 2.4044 5.63642
0.435894 0.246544 2.61197
0.727774 1.24639 6.67458
1.35159 1.55714 7.00931
2.45261 6.69634 16.4471
0.582296 1.33009 13.6314
3.74909 6.25695 10.034
0.430268 1.84188 10.2879
0.708887 1.4332 4.69835
0.541509 0.396651 6.86157
2.13819 2.88311 10.1463
1.57592 5.43425 9.81903
1.72553 2.8772 6.79898
0.811926 1.36971 6.16719
0.369341 1.12581 4.60905
1.4629 2.28036 6.93197
1.24051 5.01489 18.4313
1.79872 2.51245 13.8797
1.43639 5.53033 8.40556
0.195899 3.0611 6.46272
1.32334 1.58878 7.49303
0.562891 0.970581 9.37051
2.01113 10.1489 20.0804
1.91974 1.74995 9.64662
1.72364 2.16946 6.33026
0.853523 2.77196 12.5325
1.46748 5.8707 8.57917
1.02755 2.13274 12.8514
2.57658 3.95802 12.7343
1.47906 1.6818 2.12046
0.39854 2.88685 15.0506
3.28467 3.84635 8.10244
1.86132 3.4863 10.7096
1.21534 2.79362 11.9565
2.1731 9.03461 24.9461
2.9535 3.07516 8.87753
1.297 2.1895 8.59183
0.783681 3.66914 10.0026
1.28171 1.68518 10.6361
0.950236 1.51371 1.57624
0.595214 3.18671 20.84
2.55398 5.26777 23.2522
3.80224 8.08809 10.5715
1.53303 1.28357 3.65648
1.40153 1.89982 7.3985
1.91969 3.90022 9.46695
1.73142 3.82057 11.2186
1.94441 2.87061 10.0138
0.145901 1.00305 6.8397
0.869373 2.3746 11.6264
1.73985 2.38122 7.92551
1.01467 1.68983 3.4901
0.946712 2.27658 4.1881
1.04846 0.789015 4.70427
1.82536 4.57069 12.8918
0.801001 4.51212 14.7353
2.56307 4.4417 20.6005
1.58337 1.66661 2.76009
0.555391 1.9322 11.9385
2.97603 5.4664 11.5926
2.21292 6.63705 24.0669
1.49285 2.78938 8.05057
2.03543 1.4574 3.70281
2.15809 2.60318 3.27835
0.53813 2.49845 14.2353
2.3374 5.12803 15.6724
0.98215 2.72824 6.38221
1.66621 2.77517 7.39193
0.649168 0.65916 2.93403
0.415012 0.493751 4.06972
0.795921 2.48943 5.12291
1.00399 1.45959 6.60836
0.624011 4.18451 20.267
2.3104 2.50124 3.74531
1.4486 3.5813 13.0004
1.9426 3.36634 9.53114
1.31573 1.22754 8.60258
2.25066 3.81472 13.2367
2.46224 8.62063 20.1955
0.617127 1.21155 3.20436
0.30575 1.7327 9.93557
0.92561 2.91052 20.246
3.32746 6.72344 11.5368
1.42709 1.99253 7.62664
1.63309 0.667786 5.31751
1.9503 1.38131 3.30316
1.37289 3.88364 14.7212
1.4013 1.55935 5.3841
1.50822 2.07511 6.14664
1.18734 1.30454 5.28029
1.10891 2.10381 4.59586
0.865301 1.58275 11.2891
1.26216 1.65184 8.10969
1.50142 2.07572 1.10978
0.957689 3.20052 14.7369
2.19299 4.86401 9.62415
0.708722 2.43709 6.86794
0.597423 0.49826 9.95262
2.59265 4.05277 7.19448
0.802233 1.64624 3.20431
1.18433 4.33437 17.8253
0.808871 2.34768 21.3609
0.866316 5.68687 21.1289
1.88555 3.20864 5.85868
0.161654 2.72199 5.07407
1.28532 5.06869 24.194
1.86133 3.09728 4.36931
0.951494 1.69882 10.7929
0.821574 3.13421 7.73475
1.67498 2.69356 8.94362
1.8059 2.52016 12.0824
1.0082 1.5263 14.7394
3.00809 5.66917 8.91109
1.52575 3.59884 11.3933
1.14786 4.86424 11.7357
0.681283 1.03979 12.2333
3.5054 9.92441 24.4589
0.87304 2.41824 3.59291
0.509352 1.72464 11.2211
1.48518 3.62619 9.62474
0.811774 0.612815 8.22614
0.844055 6.10123 14.6052
1.74981 1.20845 3.51359
2.10818 7.402 28.3043
0.890665 2.09495 3.98241
0.489389 1.00104 11.7486
0.64292 4.73364 18.2627
2.59339 3.5131 19.0189
1.92637 2.65785 4.00443
1.27469 6.31067 17.1805
1.02236 0.979815 9.58961
1.06331 2.3021 4.2434
0.0507102 2.45561 6.14454
1.57748 2.23838 12.638
0.871061 3.7666 5.24449
0.777722 1.06716 8.08791
1.4061 2.74535 9.57172
0.719818 0.832034 6.3098
0.927414 1.41302 4.00749
0.78923 2.61326 12.518
0.714296 3.2002 12.6021
0.781563 6.52746 21.4401
2.2582 5.54496 12.6638
1.30745 0.526017 4.61803
0.395768 3.29763 6.28943
0.920295 0.883835 1.59275
0.521905 2.59983 7.43139
1.19514 2.36146 14.1946
1.89458 2.64834 10.4222
1.54444 1.14032 11.6136
1.97508 5.02013 10.4751
1.80533 2.56108 2.27741
1.2101 3.03133 5.84389
0.443222 5.61393 21.607
1.54849 2.20424 8.25867
0.658915 3.04377 10.099
1.56983 5.4194 18.0066
1.62216 3.00815 13.4383
1.24285 4.46747 15.1289
1.11349 2.73088 13.5544
1.56917 1.05133 5.49394
0.812668 1.87105 17.15
2.60526 7.66862 24.952
1.40577 6.86769 22.5253
1.77935 6.17211 21.6944
1.07349 2.03008 6.51274
0.458986 3.96071 6.82324
0.589903 2.73988 23.0147
2.19095 8.77304 17.6301
2.28393 5.19968 25.351
3.4205 2.21873 4.6826
0.764008 2.522 11.5714
2.16431 3.54736 10.4482
0.477625 3.24636 12.0338
1.24104 2.46799 10.4352
1.64026 1.06365 7.96726
1.16755 5.9393 11.3923
1.37826 2.67003 15.8003
1.62716 0.95982 10.1331
2.97043 8.67049 21.4602
1.05804 1.18107 1.04366
0.732346 2.24439 19.7582
1.67588 3.39519 1.63821
1.06106 2.38801 2.59171
0.75545 4.44894 13.3072
0.690721 3.71691 21.2126
2.23449 2.51136 9.55339
2.18913 9.82342 25.8715
1.89087 5.27651 29.7276
2.00918 4.19745 22.3634
3.3856 4.61525 8.22547
0.807761 0.884491 6.94581
1.04021 4.63384 10.3966
1.63332 1.87794 9.31371
0.993572 2.48927 5.61113
0.672322 0.254401 3.86539
1.30325 1.8101 16.3732
1.56255 3.77263 7.09723
0.187567 2.95198 10.3549
1.91066 5.98658 17.4752
1.57973 1.38423 12.6486
2.08556 2.39173 6.78876
0.205964 1.64502 18.4538
1.64732 4.10495 6.21085
1.20406 2.49342 8.53174
0.853195 1.37846 5.48262
1.49854 2.00301 10.6957
1.20743 4.68047 14.7466
1.8994 2.92966 5.25914
0.560932 1.65063 4.014
0.7594 2.06312 4.32003
0.750482 2.33251 16.2529
1.72012 3.78579 15.0826
1.95956 4.97446 14.8645
0.286606 1.766 14.9879
2.05979 4.84917 11.7731
0.669183 0.518593 8.49474
0.783674 4.29686 18.9675
1.84679 4.71385 13.667
2.42276 3.22942 6.2947
0.477983 2.31422 13.1681
0.56844 2.14725 13.3547
0.890772 0.614828 9.71229
1.65127 8.72135 22.9825
0.985135 2.17102 9.03377
1.48625 1.10472 7.10655
1.26457 5.60931 18.5565
1.03144 3.08405 14.7163
1.08056 4.61225 4.95826
0.597863 3.09928 27.431
2.63222 4.16091 17.6984
0.640508 6.7449 11.8548
1.11093 3.87145 11.8174
1.63619 1.12073 7.17885
0.503589 3.78306 13.9187
1.9708 1 1.47973
0.91945 2.20913 5.72843
0.728149 0.668593 7.98245
0.583598 2.60892 7.55679
0.858276 1.6115 4.52215
1.42054 1.25952 3.04933
0.999742 3.71917 15.9949
0.810601 2.7069 16.1863
0.837162 2.62953 6.60891
0.541942 1.86926 5.19643
0.329481 0.980992 3.41237
0.609921 1.01729 5.08618
0.701147 1.38103 22.6508
2.12441 6.7155 8.66213
1.0312 1.43718 13.6103
0.492364 5.59802 10.5075
1.47235 1.83292 7.96714
1.53018 2.61535 10.6846
1.17924 1.93526 2.28764
0.407361 1.62456 13.8122
1.36527 1.69984 1.94165
0.446696 0.528442 0.878695
0.322117 3.30576 8.8739
1.05688 3.00093 18.6691
2.43994 0.947488 1.98007
1.05905 1.96083 9.71525
0.783961 3.40656 9.78918
1.47034 0.731412 2.32309
1.0617 4.98398 24.9963
1.31801 3.08099 8.45497
0.757791 3.7081 8.10984
1.12822 0.978711 10.3557
1.84349 8.88701 18.799
1.166 1.29021 9.70756
0.471139 2.37758 9.64166
0.925601 3.75843 16.6368
1.01199 5.06631 25.2888
2.51798 3.95751 11.182
1.35935 2.92626 6.924
1.13624 2.75203 15.9357
0.604869 4.9846 6.59942
0.855344 5.2267 20.8509
2.01081 2.10502 25.0507
3.1071 2.59852 15.8187
2.93569 2.56763 6.9807
1.25483 3.94356 14.3348
0.804978 3.8971 18.2501
2.76906 3.10559 29.7016
3.09949 5.49024 23.4726
2.48562 5.87841 6.759
0.8429 2.94952 14.7289
2.07709 3.23239 11.2119
1.72917 2.57197 7.78512
1.03294 2.09849 20.3919
1.82748 4.79846 9.58725
0.746934 2.21552 6.90842
1.00032 1.91353 6.26328
0.72684 3.97698 13.4893
1.87567 2.64971 14.0919
1.78187 3.02385 4.73147
0.642221 0.650006 3.51007
0.730134 2.18309 8.44572
0.352773 0.930293 4.95519
0.942067 1.92347 5.98576
0.513462 1.34964 3.86271
0.577074 0.559703 2.40185
0.58567 0.359639 3.84712
0.362002 1.32692 5.08218
0.749521 3.02644 18.8982
1.30193 2.67355 5.08621
0.985218 1.49656 5.27483
1.31339 2.9583 12.2131
1.39451 2.52924 13.4836
0.59845 3.75051 13.5756
1.76908 2.41576 8.45534
1.10189 1.67104 6.33269
1.18482 1.2851 15.8829
2.1305 6.22441 4.6514
0.48014 2.45307 12.3417
1.0516 2.46939 17.434
2.64926 3.6504 5.73385
0.964039 2.61055 13.1325
1.01351 0.395969 7.44196
1.46492 2.33249 15.5417
1.07204 5.54617 5.69829
0.676733 2.59873 15.3186
2.30734 6.65815 19.1988
1.6279 1.20559 7.91858
0.745423 3.70988 8.592
0.480633 0.577944 4.34197
0.963333 2.89926 2.49585
0.573412 3.8737 22.2134
0.829762 1.2706 4.97983
0.962944 1.89893 7.43777
1.10719 0.537609 7.16073
0.754376 1.1009 6.87078
0.47664 2.8542 9.76806
1.04884 1.60967 5.6287
0.212731 1.1929 5.88338
0.63876 3.98706 13.4516
1.51811 1.93122 10.0138
1.99385 2.62519 11.6652
1.2888 3.58565 11.9948
0.546349 2.65026 2.49851
0.71932 1.92622 16.4811
1.53519 1.48391 3.60955
0.592956 1.59869 3.08329
0.759482 0.397192 2.04926
0.745774 2.44655 17.6606
1.61693 3.34679 8.76954
0.186776 1.77532 8.70254
0.858385 2.21589 7.84073
1.42465 5.25257 21.0841
2.40763 1.04944 4.88162
0.994469 3.19082 12.8567
1.24564 1.89113 2.69135
0.634552 1.40048 8.53457
0.610379 0.768179 13.1591
1.48198 2.90089 5.43111
0.61542 2.20495 6.57576
1.03441 3.02475 4.23739
0.253191 1.72716 8.707
1.58517 2.13764 14.0724
1.5185 2.12873 5.81546
0.72902 0.928714 2.9637
0.982035 7.33822 22.4357
1.12021 0.783805 4.52844
0.851463 0.803481 1.99295
0.788367 2.77911 18.9009
1.68605 3.09079 12.5567
1.44614 2.75716 6.35378
0.936042 0.478825 5.51585
0.991295 1.77143 14.8515
0.697379 2.46605 4.46229
0.791429 3.48676 14.9987
1.17075 2.23979 1.01152
0.496346 3.76465 13.0546
1.55277 3.18731 11.614
1.42723 0.841176 4.78192
0.719003 0.909512 4.83061
0.327406 0.387116 2.85073
0.792975 0.932736 7.60936
0.812219 2.75411 10.2501
0.651033 1.16232 8.16994
0.607301 4.24994 13.2666
1.12773 2.80343 10.6785
0.417332 3.9779 9.86552
1.3664 0.603942 18.9372
2.31842 5.81804 22.9627
2.16361 3.36751 8.06323
1.15108 5.03233 18.4915
0.37327 4.2434 13.2867
1.7277 4.44576 9.82859
0.795551 2.49237 21.5084
2.2938 5.66906 6.60243
0.964589 4.02285 11.2853
0.882563 3.44052 21.4786
1.34852 2.20802 14.9184
0.750549 2.94994 12.3338
1.26096 2.30816 14.7919
0.343015 1.41765 10.4704
0.607517 1.07814 14.5608
0.877571 3.42492 10.3768
0.825839 6.84792 12.8206
1.68883 2.49369 5.51256
0.716608 1.83073 17.6652
1.00129 6.96094 14.5434
1.34689 2.04814 6.63315
1.08294 2.16187 11.3487
1.63039 2.01184 8.48562
0.825347 2.39335 18.7306
2.10198 5.20112 23.1461
2.59672 4.53054 19.3579
1.12477 4.80818 16.913
2.08947 4.85187 16.714
1.55017 3.26402 10.1478
1.27752 1.32707 4.05979
1.16848 3.81008 9.48075
0.536375 1.89252 3.80196
0.487159 1.82875 20.9203
1.0956 7.49033 14.9889
1.00648 2.54076 7.05213
1.14591 0.794729 10.5013
1.91039 2.52237 14.1355
1.24065 2.22322 5.87053
0.24765 2.32356 10.5787
1.26521 1.17174 7.35771
1.31813 4.13488 10.5709
1.71247 3.30592 17.8734
1.26322 2.68929 14.3905
0.341466 3.03626 21.6013
2.0411 7.81564 8.82748
1.24239 2.12271 12.4073
1.44299 2.62019 14.088
1.93496 1.65157 3.87807
0.303455 1.77075 4.36027
0.810098 3.01673 12.1976
1.08204 1.62674 5.49231
0.752995 1.86251 9.15138
1.19497 2.50802 11.2644
1.93483 2.22256 11.0821
1.06732 4.59802 24.7578
3.17139 5.22745 18.5045
0.856535 7.2258 24.8529
2.21699 1.35704 6.49818
0.519588 1.74985 9.57774
0.686496 2.03532 8.20132
1.08392 2.27408 4.63363
0.581017 2.78911 19.4185
1.95683 3.4829 13.8889
1.50298 0.982305 10.4675
0.647565 2.81438 8.53824
1.65641 3.15258 10.2636
0.951041 2.56944 25.9464
2.56093 5.66473 17.8489
2.03992 7.90104 11.9505
0.917807 2.52432 17.5444
0.318587 2.56573 8.35972
0.824241 0.878803 15.1787
0.988716 3.62575 7.92006
1.05137 5.78394 24.0751
1.64259 6.67606 14.2302
1.79722 1.59711 14.1417
2.22529 4.94953 12.3413
0.928647 1.11168 10.6183
0.850604 2.94283 8.93621
1.12229 0 0