# pn-170911/RbIIA-29-USN3-1280-1959.psd
# Power spectrum* (dif=0,1,2) (really just |FT|^2)
# NOTE: only the first half! (symmetric)
# weeks: 1280-1959
# 649 clock-days, 208 excluded
# PSD: 1441
11229.4 0.364087 0.00825532
337665 5.489 0.00387503
1.75318e+06 34.8634 0.00460367
123238 4.54149 0.00398427
132040 7.45752 0.00433186
58870.8 4.48203 0.00424709
36767 4.45057 0.00455051
31366.4 3.87466 0.00463476
22889.6 4.68657 0.00510584
16885.6 3.81471 0.00528371
14170.7 4.08332 0.00580692
10801.9 3.89363 0.00631756
9588.04 3.91754 0.00654897
7615.54 3.56668 0.00637142
7233.75 4.33133 0.00749705
6060.23 3.8503 0.00813767
5406 3.90757 0.00840999
4950.33 3.9898 0.00968465
4365.18 4.1669 0.00984417
3656.15 3.94085 0.010779
3743.97 4.08647 0.0114659
3352.77 3.99411 0.0128017
2752.97 3.77818 0.012158
2647.18 3.71077 0.0131631
2351.46 3.96611 0.0142194
2171.03 3.71833 0.0154748
2031.83 3.83463 0.0168524
1809.39 3.87129 0.0165705
1880.07 4.27401 0.0190925
1542.94 3.88008 0.0204028
1477.97 3.60618 0.0182182
1452.52 4.01124 0.0232479
1251.96 3.68827 0.0222968
1280.9 3.94541 0.024785
1254.85 4.16721 0.0274745
1042.21 3.57613 0.0246424
1153.93 4.12496 0.0308191
978.234 3.97642 0.0299072
1059.19 4.27732 0.0335931
904.747 3.88917 0.0309292
821.588 3.83188 0.0326395
796.657 3.69377 0.0326016
745.502 4.04249 0.0391128
745.531 3.98821 0.0388794
664.384 3.64613 0.0369013
671.776 3.76095 0.0393299
714.895 4.31717 0.0466298
618.542 3.88176 0.0434994
573.666 3.79271 0.0459912
546.756 3.71362 0.0454311
519.475 3.81814 0.0491787
527.834 3.85274 0.0518356
531.278 4.0075 0.0553268
471.515 3.71519 0.0537832
476.233 3.81133 0.0556341
487.601 4.30902 0.0651309
455.564 4.04506 0.064861
426.477 4.11608 0.068097
400.572 3.89033 0.0655273
399.45 4.07392 0.072278
386.323 3.91837 0.0717261
398.17 4.16941 0.0765421
388.418 4.11422 0.0763602
368.929 4.4641 0.0880613
345.215 4.01123 0.0814287
331.37 3.76802 0.0788668
319.848 3.97365 0.0862349
303.6 3.86923 0.0846331
312.922 3.78171 0.0866593
294.759 4.16223 0.0983344
297.426 4.13312 0.0974067
264.329 3.85584 0.0983871
281.901 3.9997 0.100786
269.318 3.98681 0.104247
272.53 4.22208 0.113912
243.888 3.87398 0.108002
237.531 4.01343 0.115396
235.019 3.88576 0.113136
249.503 4.44225 0.133121
211.313 4.06598 0.123172
229.263 4.09979 0.129172
210.613 3.95997 0.127783
204.345 4.02736 0.13296
199.611 3.88146 0.131725
197.315 3.91037 0.135231
191.424 4.01733 0.141544
189.764 4.20144 0.153353
175.218 4.03993 0.147616
178.957 4.00707 0.150312
178.389 3.90197 0.149175
162.167 3.62554 0.143499
164.722 4.03192 0.161504
158.375 3.70319 0.151067
150.569 3.73458 0.156773
172.087 4.17482 0.178091
149.42 3.94115 0.173431
146.039 3.67751 0.161736
160.882 4.39481 0.200995
152.603 4.28478 0.199382
131.579 3.70797 0.174479
150.827 4.32625 0.211245
143.183 4.20566 0.204272
129.349 3.84461 0.19352
130.41 3.84386 0.199131
131.029 4.03384 0.212311
127.406 4.02639 0.214503
127.594 4.24295 0.233013
127.053 4.07056 0.227145
120.982 4.02141 0.223902
123.735 4.39318 0.252276
115.652 3.96835 0.227647
115.626 3.68233 0.215453
119.754 4.2501 0.257916
111.743 4.08978 0.25131
114.329 4.23988 0.263391
107.328 3.97062 0.251149
104.731 4.02131 0.25939
96.4387 3.93576 0.260276
98.164 3.83572 0.252625
100.819 3.82556 0.25956
101.235 4.24355 0.290569
92.5654 3.9419 0.277852
93.4528 3.87608 0.279591
92.7731 3.8429 0.280098
86.402 3.73561 0.274864
93.9252 4.04056 0.30332
92.3393 4.13054 0.309674
90.6648 3.91224 0.307221
82.6581 4.07531 0.315907
81.6132 3.89545 0.315102
80.5099 3.94712 0.319993
81.5293 3.973 0.328145
83.6887 4.17929 0.348019
81.1264 3.92804 0.332209
72.7864 3.90519 0.334017
74.8485 3.81683 0.331789
68.8905 3.93944 0.348152
73.313 4.06364 0.368723
71.9456 3.87812 0.350771
67.1586 3.82271 0.354616
74.1498 4.17078 0.386645
70.2991 3.91811 0.374744
69.5386 3.90072 0.378705
62.2828 3.92175 0.381138
67.3703 4.04601 0.401737
68.8898 4.10062 0.412046
63.7535 4.10184 0.413962
65.9494 4.21552 0.428395
65.0251 4.08286 0.422738
68.57 4.28806 0.459083
62.2398 3.89725 0.41529
60.2843 3.69788 0.407325
58.3682 3.84355 0.42026
61.0788 4.09243 0.453166
58.0564 3.99448 0.454488
57.4346 3.95354 0.455892
56.9085 3.70899 0.431868
57.4209 4.09717 0.482256
55.9979 3.84662 0.458388
55.325 3.95397 0.471245
53.7925 4.03111 0.491466
55.8746 4.00632 0.492815
53.0846 3.96904 0.494858
55.6649 4.23915 0.537327
51.9652 3.95735 0.503758
53.2465 4.24331 0.554603
48.2926 3.77576 0.492552
54.4582 4.02321 0.523036
50.4037 4.01853 0.538549
49.2525 3.90405 0.540113
50.452 3.9458 0.53424
47.6361 3.86098 0.536961
47.6505 4.05415 0.568456
47.6649 4.03024 0.574956
47.5965 3.88216 0.560334
47.332 4.06711 0.578212
45.0189 4.11754 0.601579
44.9374 3.85827 0.570495
44.3589 3.97685 0.606589
43.8342 3.89823 0.599472
45.5787 4.30278 0.651366
43.9922 4.0907 0.633791
42.7543 3.8162 0.591607
42.0334 3.87619 0.623544
41.6618 4.03251 0.64286
40.2744 3.98954 0.65397
38.634 3.69065 0.604201
40.7548 3.95382 0.651652
38.0375 3.85959 0.64473
39.647 4.1288 0.683971
38.8724 3.92229 0.670599
37.5496 3.86268 0.667567
37.0551 3.90832 0.690647
41.4878 4.36353 0.765018
35.5277 3.72657 0.671507
38.4674 4.0087 0.72523
40.2647 4.46824 0.793543
38.9082 4.54165 0.830431
36.2098 4.25212 0.791482
35.8289 4.01145 0.739346
33.2339 3.8872 0.745338
34.4273 3.9796 0.764047
37.05 4.17409 0.792171
37.2771 4.27698 0.827794
35.6372 4.20424 0.815253
33.5756 4.04756 0.810765
32.6221 3.82804 0.753436
33.1165 4.0353 0.82513
35.5433 4.44626 0.893636
32.7244 4.28464 0.87878
34.2389 4.51403 0.935376
32.0488 4.09441 0.859886
33.5673 4.47889 0.950569
31.8968 4.1331 0.892637
32.2826 4.23143 0.904731
30.7406 4.00243 0.868919
31.2118 4.31627 0.950492
29.9878 3.99496 0.877165
31.2357 4.1059 0.910879
30.7169 4.30579 0.970127
29.7146 4.04208 0.924687
28.2134 3.78285 0.866108
26.8086 3.85991 0.888422
29.8795 4.20535 0.97758
28.5532 3.99453 0.940228
27.3089 3.82018 0.900173
27.4326 3.91508 0.945601
27.6912 4.26519 1.03966
27.6854 3.85113 0.939987
28.6168 4.13622 0.979797
27.8202 4.06544 1.01396
26.3498 3.97835 0.994173
26.4817 3.91227 0.979225
26.8538 4.03918 1.03288
28.0238 4.27518 1.09615
25.8672 4.10179 1.05771
25.6734 4.19535 1.08362
25.5201 3.94823 1.04707
25.723 4.2408 1.11813
24.8479 4.17997 1.13022
26.5889 4.40474 1.17218
24.7898 3.99433 1.0814
25.3477 4.28686 1.16705
25.0412 4.0259 1.1229
25.1817 4.55503 1.26555
24.3258 4.02554 1.10676
23.8322 3.98717 1.12128
24.0101 4.12951 1.17683
23.2258 3.65742 1.02539
24.1418 4.20499 1.20477
22.7219 4.00566 1.19715
22.5074 4.23566 1.23012
23.5657 4.31592 1.26579
24.8187 4.26268 1.28586
22.5511 4.13414 1.23556
23.7193 4.33083 1.29294
21.6492 3.98852 1.21845
21.9576 4.09297 1.24959
21.5017 4.07681 1.25909
21.0395 4.1561 1.2977
22.0274 4.0843 1.24889
23.4282 4.47687 1.438
20.4691 3.89752 1.26018
21.8243 4.46006 1.43676
20.8071 4.08279 1.31141
22.0628 4.22991 1.39717
20.8446 4.11225 1.33886
20.9474 4.06803 1.35822
18.5737 4.07725 1.37162
19.5281 4.17115 1.40908
19.6411 4.20261 1.41534
19.6305 4.15792 1.40271
18.346 4.14742 1.44026
20.0791 4.31684 1.49416
19.425 4.16812 1.44977
18.0861 3.80659 1.33168
18.912 4.19734 1.51331
18.413 4.00996 1.40262
18.4928 4.17914 1.50697
18.1648 4.06891 1.45997
17.8007 4.01834 1.46265
18.2296 4.02812 1.47118
19.1506 4.28923 1.5392
17.7627 4.24628 1.57807
19.0965 4.33626 1.62066
17.3075 4.09365 1.54336
18.4995 4.37307 1.67986
18.0062 4.30389 1.64563
19.0836 4.27815 1.64827
18.4282 4.18087 1.59445
18.1157 4.39955 1.73185
16.798 3.97276 1.56045
17.5153 4.11285 1.62571
17.7924 4.23199 1.63953
17.8865 4.35838 1.73658
17.768 4.37087 1.73502
16.4071 4.21714 1.67449
16.6306 4.36222 1.78389
16.7855 4.07808 1.64884
16.3915 4.23206 1.73412
16.8006 4.31563 1.80756
15.4981 3.92192 1.63785
17.4718 4.22189 1.7734
16.9347 4.34835 1.82798
15.9713 4.05518 1.73013
16.3302 4.26959 1.85629
16.5471 4.09411 1.73043
15.1718 4.00128 1.71725
17.166 4.5204 1.96898
15.6731 3.98272 1.77626
17.303 4.70452 2.1124
15.8787 4.35405 1.88415
15.2755 4.21043 1.89302
15.1233 4.17128 1.87646
14.9815 4.41139 2.01851
14.4869 3.95021 1.82192
14.6404 3.99016 1.86166
16.0622 4.18952 1.90844
15.8404 4.543 2.08908
14.3822 4.1759 1.95706
16.0841 4.59646 2.11617
13.6466 3.96922 1.87115
14.2742 4.35816 2.09307
14.9797 4.4552 2.1394
14.6501 4.41014 2.06728
15.027 4.38682 2.14239
14.5776 3.98826 1.90572
13.6292 4.11233 2.02055
13.5986 3.95481 1.91057
13.6038 4.32944 2.14917
14.4485 4.47096 2.27425
13.5309 4.10753 2.13559
14.9341 4.2154 2.07761
14.2995 4.36511 2.17017
14.7929 4.73525 2.4289
13.5899 4.16267 2.11437
13.223 4.03845 2.07624
13.92 4.3736 2.25906
13.8456 4.37949 2.24691
13.0838 4.55596 2.36093
12.7964 4.40542 2.33346
13.482 4.46602 2.3846
13.4607 4.36045 2.35659
13.0775 4.27285 2.27253
12.4614 4.01999 2.2043
14.0562 4.40485 2.29944
13.0417 4.14912 2.30367
13.2697 4.47139 2.43064
12.2864 4.21568 2.34595
13.1247 4.76341 2.61684
12.7259 4.62135 2.56784
12.4002 4.20964 2.3483
12.7012 4.37455 2.47576
12.0822 4.30756 2.41952
12.0105 4.10888 2.3329
12.2048 4.22294 2.36932
11.2308 4.09658 2.41683
12.198 4.19406 2.38792
12.1964 4.44016 2.56325
11.7964 4.34673 2.54408
12.3266 4.67415 2.75402
12.5743 4.32674 2.53897
11.9315 4.30807 2.55892
12.3102 4.44752 2.70475
12.1108 4.59245 2.74347
11.6712 4.16489 2.5036
11.3133 4.24197 2.53584
11.0733 4.24163 2.56024
11.8757 4.11387 2.48752
11.3128 4.3145 2.66722
11.9054 4.4621 2.71495
11.3509 4.35654 2.70229
11.0635 4.29176 2.71008
10.5298 4.41549 2.74948
11.0237 4.31365 2.76749
11.2039 4.45246 2.85087
11.1585 4.38968 2.79674
11.3517 4.56171 2.94028
11.7346 4.4216 2.83689
11.0762 4.34284 2.77579
10.5004 4.44998 2.94454
10.6531 4.51561 2.86867
10.5905 4.1948 2.85569
10.4573 4.32387 2.81127
10.1322 4.46541 2.98751
11.0154 4.54107 2.97231
10.449 4.34217 2.87187
10.0343 4.25259 2.90984
9.74622 4.20538 2.85272
9.7549 4.26628 2.95357
10.6024 4.38488 3.00998
10.1527 4.39138 3.05132
10.3419 4.4231 3.01106
10.0183 4.3933 2.98938
9.55838 4.37635 3.12001
10.158 4.27728 3.00723
9.76683 4.30106 3.04608
9.91375 4.36597 3.04938
10.5764 4.9292 3.53309
10.0396 4.41556 3.04759
10.0555 4.39369 3.14623
9.39514 4.34921 3.1533
9.73854 4.56296 3.25995
9.43852 4.45121 3.31422
10.4063 4.72744 3.36822
10.0566 4.52238 3.3363
9.57694 4.51618 3.32933
9.00183 4.21293 3.08401
9.23404 4.27468 3.22998
9.5456 4.24929 3.20121
9.55064 4.40581 3.24985
9.16922 4.29814 3.15433
8.65782 4.42419 3.43427
9.6183 4.84049 3.69871
9.41311 4.50076 3.4448
9.26452 4.22736 3.17885
9.44339 4.70603 3.54296
8.96023 4.38195 3.47992
9.50127 4.5475 3.50514
9.32321 4.45441 3.50037
9.5234 4.57958 3.59076
10.0651 4.78458 3.70402
8.92074 4.52972 3.63594
9.53277 4.54514 3.5865
8.39621 4.34966 3.5322
8.89477 4.71996 3.80373
9.68683 4.75133 3.81172
9.19063 4.69716 3.92912
8.95357 4.74812 3.81608
8.92454 5.01555 3.94972
8.94094 4.44314 3.64424
8.33741 4.17302 3.33912
8.28666 4.81241 3.96861
8.43462 4.53974 3.87621
8.65848 4.58881 3.66586
8.88017 4.94044 4.2749
8.87392 4.47664 3.67602
8.44767 4.95307 4.18813
8.80095 4.53274 3.81241
8.37297 4.37299 3.72839
8.83898 4.4526 3.82907
8.2689 4.82758 4.1193
7.80035 4.341 3.79811
8.61969 4.6644 3.97406
8.7663 4.77825 4.19817
8.31623 4.86836 4.23766
8.70075 4.59705 4.10181
7.77961 4.43687 3.86343
8.65089 4.70539 4.05744
7.45117 4.37181 3.93542
8.28506 4.86012 4.29042
8.01816 4.35954 3.9737
7.93398 4.38223 3.95457
7.97175 4.49942 4.06648
7.40794 4.29643 3.88453
7.94774 4.45548 4.1476
8.2709 4.80944 4.24502
8.3664 4.91517 4.43627
8.07076 4.64228 4.29956
8.19385 5.07272 4.68022
7.93165 4.78195 4.37919
7.52062 4.53681 4.17015
7.23533 4.41484 4.18392
7.99443 4.86334 4.5265
7.57995 4.53539 4.29259
7.68007 4.87591 4.54174
7.03112 4.30489 4.13401
7.95515 4.86253 4.62963
7.39624 4.61119 4.46669
7.52419 4.61554 4.41793
7.86425 4.80714 4.61834
7.12841 4.43242 4.28299
7.63016 4.41184 4.32972
7.8058 4.56091 4.46668
7.19195 4.61289 4.44556
7.64311 5.1656 4.98475
7.33863 4.76692 4.70546
7.0586 4.51942 4.53255
7.50978 4.67803 4.75915
7.52069 4.95481 4.95719
7.51747 4.72599 4.67753
7.17543 4.83695 4.9518
7.32328 4.60352 4.73805
7.21096 4.44494 4.51805
7.01002 4.59624 4.56455
7.07407 4.73391 4.96775
7.34535 4.78949 4.76431
7.15633 5.00044 5.30729
7.12356 4.55393 4.74272
7.32209 4.76438 4.81814
7.13193 4.92626 5.03246
6.97171 4.61943 4.76373
7.22594 4.54404 4.77291
7.22037 4.89076 5.12128
7.07684 4.65706 4.8397
7.11483 4.93711 5.40683
7.54661 5.18467 5.37879
7.20568 4.95769 5.1442
6.59037 4.93123 5.52477
6.75482 4.69976 5.01852
6.97408 4.80051 5.21993
7.13425 4.85819 5.17031
6.77953 4.58353 5.02831
6.53988 4.69743 5.04778
6.86191 4.65115 5.08771
6.59782 4.71896 5.24527
6.95695 5.04852 5.36709
6.11806 4.47378 5.28504
7.04647 5.27334 5.60729
6.44061 4.71669 5.25691
6.70307 4.86633 5.44748
6.54766 4.86612 5.33705
6.94519 4.96304 5.66789
6.43358 4.57403 5.15622
6.75274 4.83999 5.29729
6.67406 4.78631 5.65228
6.86394 5.02037 5.82279
6.97102 5.09244 5.61006
6.74228 4.95587 5.65711
6.06559 4.60592 5.30873
6.38264 5.20208 6.04004
6.23876 4.85624 5.70677
6.87972 5.10881 5.93408
6.73978 4.75173 5.47132
6.39708 4.90588 5.79451
6.08508 4.68597 5.56736
6.35087 4.95038 5.94238
6.02067 4.72879 5.70239
6.65579 4.70308 5.5194
5.97586 5.02607 6.06301
6.22765 4.82529 5.67709
5.8847 4.95774 5.95527
6.59286 5.20417 6.17902
5.92161 4.77194 5.9038
6.28984 4.64217 5.36861
6.06637 4.66271 5.62462
6.21636 5.01272 6.23106
6.10679 4.94616 5.96922
6.03982 4.88918 6.21795
5.97651 4.88997 5.98133
6.00136 4.88391 5.99815
5.99595 5.00832 6.43404
6.33292 5.14737 6.19042
6.08141 5.0497 6.50788
6.12393 5.06293 6.26344
6.18713 4.94273 6.33179
6.33486 4.92864 6.07351
6.1942 4.86977 6.005
6.15757 5.03854 6.28032
6.11316 4.89584 6.16298
5.81649 5.08124 6.5524
6.00134 4.72963 6.11694
5.9317 4.71 5.91014
5.63856 4.60733 6.09476
5.64663 4.77837 6.24565
6.00348 4.7142 6.0014
5.205 4.29431 5.78956
5.92543 5.01584 6.51663
6.44975 5.53126 6.9955
5.44884 4.70198 5.95941
5.84258 4.8408 6.5926
5.51552 4.91474 6.58338
5.6425 4.96225 6.55487
5.78077 4.97795 6.58962
5.65099 4.98867 6.75806
5.54177 4.8864 6.50848
5.73308 5.28677 7.30193
5.84446 5.24678 6.91772
5.37918 4.90445 6.64436
5.48503 5.00348 6.95894
5.4887 5.14705 6.98677
6.03903 5.37071 7.20967
5.33479 4.79635 6.69657
5.66554 5.30232 7.56593
6.25624 5.48138 7.07207
5.78731 5.11119 7.22104
5.58303 5.05372 6.98442
5.87493 5.31739 7.44164
5.87828 5.51731 7.40586
5.59461 5.08911 7.18714
5.89092 5.52315 7.65264
5.44678 4.98444 6.98318
5.60135 5.20046 7.06901
5.31719 5.06803 7.407
5.41685 4.90992 6.81374
5.35473 5.26158 7.50087
5.02454 4.84543 7.1108
5.58862 5.20644 7.46218
5.58714 5.4434 7.59389
5.18301 5.09675 7.51623
5.29821 5.0674 7.41042
5.28797 5.0525 7.33417
5.63668 5.65142 8.00826
5.19488 4.98348 7.20677
5.17078 4.95372 7.29059
5.19582 5.05835 7.36208
5.24136 5.09495 7.52467
4.89302 4.80624 7.15713
5.43759 5.18062 7.55076
5.10433 4.91449 7.38216
5.55586 5.19369 7.56272
5.39914 5.21279 8.12481
5.02428 4.6414 7.09016
4.9458 5.03635 7.50122
4.86107 4.87552 7.04423
5.24188 5.45759 8.32991
5.47128 5.3042 8.00589
4.98559 5.18409 7.93551
4.97536 5.08172 7.75912
5.02155 4.98681 7.39674
4.97356 4.78349 7.3235
4.85857 5.20654 8.11278
4.88557 4.98 7.43306
4.70463 4.70374 7.43815
5.04705 4.97118 7.72866
5.13061 5.31481 7.99196
4.90821 5.29255 8.31176
4.94366 4.93091 7.89565
5.08045 5.16529 7.62573
5.04694 5.15095 8.0922
4.60087 4.52971 7.13099
4.95525 5.04154 7.71709
4.65243 5.1356 8.23057
4.83188 4.74571 7.60521
4.7435 4.96993 7.89643
4.8362 5.11276 7.84672
4.66788 5.00498 8.22713
4.93399 5.14113 8.00157
4.46323 4.95937 8.24747
5.21838 5.38607 8.68356
4.81291 5.10332 8.07564
5.24073 5.67864 8.92893
4.74597 4.99764 8.08723
4.81489 5.41406 8.75392
4.72098 5.24299 8.51929
4.36698 4.55744 7.962
5.11373 5.53589 8.65866
4.66967 4.99149 8.31681
4.47545 4.7656 8.04804
4.80603 5.31446 8.7385
4.70533 5.15538 8.43187
4.44338 5.12255 8.52662
4.90219 5.09256 8.38566
4.57257 5.30046 8.70081
4.5277 4.94333 8.67081
4.66766 5.03879 8.37925
4.94756 5.27427 8.59892
4.47045 5.08044 8.64815
4.93406 5.4077 9.14466
4.57951 4.99306 8.37332
4.4992 5.3035 8.65857
4.40291 4.87616 8.16445
4.51497 5.31588 9.2424
4.89797 5.63925 9.8986
4.60196 5.11196 8.60152
4.68004 5.2633 9.18541
4.52806 5.33642 8.97522
4.81901 5.13466 8.54575
4.49582 5.35033 9.53316
4.48987 5.18206 9.08648
4.71891 5.89996 9.89926
4.5627 5.24543 9.26181
4.7279 5.17388 8.87146
4.20083 4.86174 8.9853
4.54312 5.47931 9.73403
4.73717 5.35745 9.2552
4.4653 4.95344 9.02192
4.42022 5.37281 9.45356
4.36141 5.27775 9.22864
4.4634 5.54717 9.93171
4.27534 5.05808 9.17889
4.53257 5.2552 9.10334
4.19428 5.15506 9.29401
4.37822 5.42696 9.73196
4.17749 4.63949 8.51847
4.15763 5.30512 9.87174
4.49644 5.33039 9.46909
3.97223 4.92395 9.23281
4.36393 5.10987 9.0868
4.26046 5.24563 9.69807
4.29625 4.94747 9.29294
4.53162 5.26437 9.44194
4.39368 5.37115 9.61123
4.71837 5.71617 10.325
4.44705 5.55573 10.29
4.48027 5.52425 9.74749
4.33238 5.20326 10.0782
4.40358 5.42613 9.62045
3.9021 5.11534 9.63664
4.07691 5.23346 10.2223
4.30105 5.37828 9.94494
4.32514 5.39554 10.6005
4.49361 5.19921 9.58936
4.26792 5.28058 9.60668
4.38398 5.57056 10.4758
4.34141 5.35511 10.1484
4.29662 5.34068 9.75968
3.97231 5.02295 9.63373
3.84436 4.84656 9.44676
4.11201 5.28525 9.87202
3.98751 5.26933 10.6389
4.42128 5.9095 11.0706
4.1353 5.18172 9.85585
4.02025 5.29817 10.4594
4.14557 5.12981 9.40377
4.09118 5.54912 11.1754
3.98138 5.39426 10.2581
4.27936 5.16653 10.0367
4.12521 5.32175 10.3509
4.16835 5.36176 10.9509
4.15265 5.7106 10.7166
4.1356 5.42447 10.6349
4.20125 5.53155 10.8516
3.94547 5.27838 10.2444
3.94895 5.31047 11.1259
4.21475 5.45878 10.5879
4.08345 5.82602 11.5122
4.25421 5.48822 10.9821
4.07351 5.24703 10.5033
4.12942 5.72175 11.0338
3.94947 5.45729 11.0521
3.99071 5.55329 11.4432
4.08569 5.621 11.0632
3.95423 5.29651 10.6306
3.82495 5.35951 11.0457
4.00478 4.96636 10.1394
4.07453 5.2622 10.3064
3.81545 5.45174 11.5112
3.95891 5.02257 10.1969
3.83011 5.40608 11.5183
3.89014 5.62075 11.1583
3.86584 5.29011 10.7842
3.85499 5.70037 11.6104
3.92548 5.51023 10.8853
4.0159 5.93238 12.576
4.12505 5.84768 12.0287
4.13438 5.87239 11.7445
3.89046 5.61508 12.073
3.88626 5.20789 11.2837
4.24102 5.58957 10.9223
3.57613 5.4273 11.1901
3.62781 5.23773 11.1852
4.04104 5.74995 11.8353
3.76111 5.28429 11.3005
3.70141 5.32237 11.3454
3.8663 5.34857 11.3189
3.83856 5.5715 11.2698
3.80079 5.55728 12.069
3.86438 5.38372 11.278
3.90682 5.40769 11.6244
3.80083 5.17255 11.0271
3.74599 5.62075 12.0347
3.95407 5.78909 12.1362
4.0195 5.57493 11.8859
3.78793 5.57784 12.3806
3.86663 5.57564 11.7472
3.78425 5.08403 10.8654
3.60439 5.72078 12.4343
3.91055 5.41586 11.8313
3.86808 5.79633 12.6567
3.91325 5.61397 12.286
3.76749 5.64753 12.228
3.89617 5.75399 12.3363
3.6536 5.28136 11.4826
3.56844 5.56458 12.5801
3.60302 5.74079 12.8369
4.06512 5.68677 12.3913
3.70213 5.62927 12.178
3.71351 5.14945 11.5418
3.53274 5.54237 12.1596
3.76388 5.9247 13.0883
3.81104 5.81243 12.3973
3.50134 5.74009 12.9721
3.53639 5.69993 13.3482
3.78823 5.76129 12.8655
3.70411 5.39488 11.7397
3.53041 5.70814 13.0605
3.71792 5.49842 12.5423
3.52188 5.56774 12.5923
3.8534 5.71654 12.7323
3.99211 6.09626 13.907
3.76803 5.51231 12.6192
3.89349 6.12275 13.6518
3.50191 5.73922 13.1888
3.62404 5.77019 12.6131
3.93865 5.91842 13.6454
3.87774 5.9562 13.3929
3.53447 5.31108 12.3859
3.85811 6.08218 13.1357
3.28848 5.48109 12.9009
3.58047 5.54258 13.1251
3.64307 5.53684 12.5206
3.29173 5.47677 13.1235
3.75563 5.73358 13.0467
3.75896 5.89864 13.808
3.36702 5.62998 12.9786
3.39455 5.61534 13.0072
3.47822 5.6794 13.4419
3.60674 5.93045 13.7102
3.51042 5.60469 13.1047
3.52153 5.64241 12.9914
3.48498 5.41979 13.2306
3.51023 5.59855 12.3875
3.23527 5.39487 13.0369
3.09303 5.32786 12.95
3.33407 5.5899 13.2692
3.4741 5.38034 12.9824
3.48909 5.75536 12.97
3.19495 5.79888 13.7709
3.51544 5.96455 14.8723
3.5314 5.77158 13.615
3.40409 6.16017 14.2215
3.50224 5.77138 14.1849
3.63445 5.77344 13.5499
3.30942 5.35525 12.8936
3.47752 6.0486 15.1479
3.55008 5.58326 13.1113
3.361 5.45395 13.2079
3.18485 5.6663 14.1212
3.59847 5.85626 14.5467
3.6726 5.9008 14.5334
3.66154 5.83673 14.1368
3.33168 5.58195 13.7552
3.34818 5.75863 13.6451
3.41665 5.60654 14.1167
3.3939 5.65739 13.3765
3.2308 5.85801 15.1767
3.63395 5.72939 14.1932
3.44741 5.74612 13.9222
3.5728 5.79634 13.5024
3.17248 5.58856 13.7585
3.24898 5.49065 14.1539
3.56456 6.12565 15.5919
3.79788 6.68938 16.1597
3.57046 5.9191 14.6429
3.37243 5.75533 14.1651
3.30548 5.80083 14.7038
3.43088 6.11686 15.4598
3.37414 5.72408 14.3032
3.49749 6.11075 14.9672
3.14748 5.57843 14.7435
3.3366 6.04347 14.7262
3.17386 5.54999 14.1433
3.36366 5.93217 15.1622
3.47081 6.04188 15.116
3.43607 5.91049 14.6968
3.26661 5.76196 15.2331
3.52888 5.91889 15.2288
3.50238 5.56659 13.4989
3.16213 6.09195 16.4411
3.36658 6.06706 15.5863
3.34687 6.48834 16.1582
3.15457 5.83797 14.7324
3.27945 5.72714 14.4092
3.21074 5.67561 15.0952
3.0722 5.45926 14.278
3.3022 5.65402 14.7627
3.44362 5.94615 15.755
3.35149 6.0363 15.5623
3.44469 6.32215 16.5835
3.33624 5.99596 15.4743
3.11534 6.30816 16.7842
3.47422 6.3392 16.482
3.28556 6.23201 15.9921
3.07762 6.47142 17.4468
3.53673 6.40893 16.5333
3.34049 6.52282 17.5686
3.58974 6.6592 17.3962
3.55218 6.26807 15.9153
3.03206 5.84913 15.8011
3.29634 6.25719 16.3266
3.30853 5.94864 15.2391
3.2236 6.04184 16.3508
3.33085 6.16191 16.8841
3.54677 6.14499 15.646
3.31164 6.28126 15.7651
3.11546 6.25678 17.2467
3.29878 5.84988 16.1171
3.2046 6.71029 18.3895
3.40996 6.19392 15.6772
3.22127 5.78487 16.4539
3.46644 6.1244 15.7029
3.20129 5.87575 15.7101
3.12758 5.89548 15.7863
3.17295 6.09816 16.1081
3.10544 5.94255 16.5311
3.17332 5.91532 15.3236
3.14304 6.24445 17.0127
3.23695 5.73727 16.1343
3.25919 6.23965 17.0292
3.30798 6.48543 17.4781
3.13803 5.65883 15.7704
3.06725 6.04556 16.001
3.10121 6.10317 16.9902
3.34072 6.12466 16.6681
3.21725 5.88762 16.2237
3.11146 5.8515 16.7528
3.20714 6.03708 16.7458
3.27631 6.31041 16.6729
3.10387 5.94426 15.9207
3.00996 6.00674 15.6453
2.90503 5.61586 15.9577
2.96844 6.12172 17.3973
3.1409 5.90175 17.2095
3.10574 5.95651 16.6851
3.34614 6.03773 16.3549
2.97319 6.40272 18.3279
3.1067 6.29644 18.0194
3.24343 6.01606 15.9489
2.982 5.92803 16.7938
2.97215 6.18089 17.3911
3.18717 6.56862 18.2154
3.03524 5.77832 17.1589
3.17133 6.27317 17.5168
3.20025 6.33034 17.4361
3.33042 6.14707 17.4186
3.06486 5.79087 16.5395
2.81925 5.91888 16.7334
3.18897 6.21364 17.6725
3.29828 6.09204 17.1806
2.79289 5.61843 15.8819
2.93834 6.24987 18.5302
3.133 6.06606 17.8487
3.1438 6.33821 17.6096
2.98546 6.15678 17.1715
2.98075 5.78078 16.9605
3.19133 5.98436 16.2719
2.93552 5.61773 15.292
2.80293 6.47223 19.3943
3.09481 5.97855 17.8986
3.1903 6.27956 17.6833
3.17369 6.26158 18.0001
2.9722 5.82428 17.1148
2.9084 5.96755 17.0136
2.86601 6.23918 18.1066
3.14586 6.08589 18.1084
3.16413 6.26408 17.6013
2.84026 6.05964 18.6558
3.16292 6.27196 18.0393
2.90247 6.05103 17.109
2.88767 6.18784 19.7124
3.3506 6.5629 19.2333
3.11367 6.21553 17.7725
2.94845 6.29562 18.0037
2.84157 6.30741 18.7042
2.97058 6.15372 18.9629
3.11081 6.39622 19.0139
3.14203 6.67607 19.1241
3.06649 6.05059 17.3007
2.89656 6.19548 18.2568
2.79005 6.16571 17.9067
3.00089 6.50466 19.9667
2.98467 6.29811 18.1218
2.91609 5.66606 16.9263
2.91338 6.0585 18.0433
2.89872 6.03407 18.9142
3.03844 6.23405 18.1299
3.0488 6.41464 18.8384
2.90899 6.41029 19.4201
2.90219 6.18018 18.6897
2.86327 6.27189 19.2524
2.97438 6.28398 19.3602
3.05628 6.19635 18.3988
3.04107 6.16015 19.4624
2.85052 5.99435 17.852
2.85295 6.37923 19.5562
2.95984 6.06926 18.1997
3.03086 6.22689 18.7091
2.90499 6.53855 19.7395
2.95508 5.95424 17.957
2.69776 5.84229 18.1016
2.68485 5.99294 17.2018
2.77995 6.93015 21.3109
2.88866 6.41984 18.7922
2.85344 6.10287 18.1801
2.85785 6.48472 19.462
2.79306 5.90898 19.131
2.88995 6.09261 18.5296
2.84484 5.973 18.9758
2.91944 6.16252 19.1348
2.92034 5.81801 18.2394
2.88318 6.14393 18.3022
2.94309 5.97892 18.567
2.78266 6.17253 18.8028
2.95936 6.38259 19.969
3.15202 6.51009 19.292
2.78648 6.45654 20.1145
2.89235 6.2515 19.4822
2.95249 6.24571 19.8006
2.84501 5.87169 18.7953
2.91314 6.29565 18.6747
2.93019 6.47986 18.657
2.58755 5.71693 18.9689
2.93981 6.19008 19.2073
2.7989 6.23686 20.7723
3.02071 6.49017 19.9062
2.78371 6.36243 19.7718
2.83239 6.1813 20.0049
2.90295 6.36173 19.766
2.90821 6.37817 20.3219
2.80408 6.0762 19.5082
2.7878 5.98951 19.2147
2.77208 6.35459 20.7459
3.0268 6.28602 19.2665
2.80454 5.99741 18.5719
2.80456 6.57512 21.4958
3.01891 6.42566 19.483
2.71853 5.97614 19.3766
2.91757 6.39789 19.9424
2.90041 6.48405 19.0872
2.6851 6.20092 19.8327
2.75058 6.51252 20.6471
2.92545 6.65583 21.7861
2.99581 6.29863 20.4072
2.81921 6.29467 20.489
3.05392 6.63735 20.2337
2.65742 6.37139 21.1564
2.74641 6.18674 20.07
2.73349 5.88028 18.1676
2.6387 6.21265 20.5454
2.94856 6.5829 21.2134
2.79023 6.29451 21.2201
2.81136 6.12871 18.9931
2.88117 5.92495 18.8995
2.73234 6.12332 18.5254
2.40527 5.68424 19.178
2.82123 6.39646 21.0464
2.73458 6.21865 19.6663
2.70739 6.47131 20.8749
2.7216 6.1758 20.0493
2.6975 6.27026 19.919
2.62799 6.20549 20.0324
2.74853 6.52195 21.6856
2.72081 6.55832 21.5988
2.99372 6.51723 20.5363
2.68895 6.48721 20.4396
2.61241 6.58588 23.4965
2.89808 6.23701 19.6351
2.79538 6.59446 21.6064
2.87109 6.3715 19.9419
2.52118 5.6069 19.172
2.65541 6.4153 21.0196
2.74793 6.16578 20.6388
2.64093 6.21863 21.8321
2.89535 6.08585 19.516
2.65275 6.16719 20.6518
2.77033 6.20696 21.7082
2.7954 6.15409 20.2228
2.83885 6.23717 20.4077
2.69401 6.30211 20.5854
2.63991 6.36459 21.5239
2.66096 6.28688 20.8691
2.78913 6.28044 19.5897
2.76848 6.89543 22.9656
2.66391 6.17165 21.9402
2.76706 6.5704 21.8754
2.72047 6.47609 21.4588
2.69826 6.18302 20.3029
2.55806 6.21096 21.4416
2.65794 5.93839 20.027
2.68475 6.86513 22.7217
2.6602 6.36012 21.8685
2.78936 6.48534 21.588
2.67861 6.34561 20.5023
2.62953 5.87819 21.4742
2.82226 6.42539 20.5068
2.70913 6.05429 20.0956
2.5241 6.08934 20.5834
2.56941 6.55039 22.3867
2.77471 6.5644 21.6319
2.77947 6.71247 22.5133
2.68012 6.51505 20.811
2.44913 6.45175 23.8273
2.77669 6.5167 20.726
2.59575 6.07969 22.0374
2.69086 6.24559 21.041
2.7019 6.59086 21.8364
2.51421 6.17884 21.1097
2.6267 6.52947 22.5799
2.67635 6.41391 22.1735
2.60354 6.18145 20.4951
2.46228 6.66455 22.4183
2.48826 6.50316 22.6078
2.57229 6.23938 21.94
2.63219 7.06758 24.7083
2.90707 6.6372 22.6176
2.68605 6.53279 21.7884
2.61451 6.76859 23.3638
2.69106 6.66423 21.957
2.62161 6.51228 23.1517
2.86759 7.0305 24.0403
2.61904 6.92141 24.1179
2.80221 6.42602 21.526
2.60372 6.28564 20.9785
2.50281 6.43145 22.9504
2.66957 6.89986 23.1116
2.65429 6.89198 23.671
2.80182 6.44871 22.7453
2.6329 6.5598 21.7774
2.58774 6.3181 21.8558
2.6416 6.58986 23.5304
2.62857 5.91805 20.3148
2.41458 6.38093 23.491
2.75223 6.71906 22.7252
2.63438 6.18568 22.5863
2.70396 6.69667 21.7795
2.43555 6.09383 21.8005
2.68279 6.98566 25.9563
2.73914 6.24952 23.4513
2.89206 6.79638 22.7806
2.77759 6.93654 21.9975
2.61029 6.55391 24.1383
2.61168 6.43493 21.2215
2.34411 6.13763 22.4951
2.73554 7.11093 23.934
2.66234 6.56543 22.6738
2.48158 6.51495 23.2782
2.68669 6.28753 23.9469
2.81156 6.79407 24.4388
2.76199 7.00688 23.0979
2.56825 6.47746 24.5135
2.73511 6.95386 23.6626
2.79191 7.07475 24.2205
2.57707 6.986 23.7602
2.66227 6.63585 23.0958
2.40995 6.55674 22.9218
2.61206 6.68522 24.9715
2.80367 6.50386 22.3167
2.49002 6.65607 25.7904
2.81239 7.56712 25.2287
2.62861 6.52968 23.5139
2.6921 6.77447 23.9192
2.51946 6.395 23.0421
2.5758 6.43618 24.2421
2.72794 6.6577 22.059
2.39884 6.66991 23.5841
2.60911 7.07866 25.3457
2.6536 6.41141 23.6437
2.46983 6.39007 23.3517
2.5427 6.62602 24.0642
2.70983 6.81659 23.6622
2.78813 7.01791 25.0241
2.75082 7.19846 24.7927
2.60554 6.44638 24.5382
2.66553 7.06287 23.7248
2.5812 6.46588 24.8616
2.71569 7.3006 24.867
2.51745 6.84373 23.8966
2.49765 6.68676 27.1814
2.7453 7.27665 27.1537
2.88431 7.92278 27.967
2.71312 7.36938 25.7919
2.68669 6.81075 26.8017
2.91576 8.26168 30.5036
3.15577 7.41732 25.365
2.63692 7.1434 24.3838
2.62807 7.11857 25.486
2.61401 6.83173 25.255
2.63103 7.07588 25.2932
2.63465 7.02806 25.0066
2.71298 6.84374 24.2259
2.50271 6.49968 24.9297
2.73154 6.52368 24.2552
2.68942 6.81723 24.4233
2.56555 6.96653 25.5258
2.52507 6.74626 25.4292
2.55411 6.63348 24.1138
2.5105 6.89088 24.8116
2.49588 6.80942 26.0249
2.69165 7.11301 25.1354
2.73295 6.69901 23.1696
2.48943 6.34503 24.5797
2.52793 6.53999 25.3709
2.7075 7.48929 26.4772
2.58744 6.5137 25.1157
2.61806 7.19143 24.1612
2.53932 6.95367 23.9267
2.4432 5.99845 24.2997
2.6642 6.67515 24.9653
2.59198 6.86844 23.6723
2.44057 6.49706 26.0012
2.64957 7.32659 24.5951
2.37562 6.13178 24.7428
2.60099 6.22313 23.4662
2.49976 6.81143 23.2685
2.39105 6.23739 25.3872
2.61659 6.76425 25.1199
2.52783 6.41601 23.3943
2.53742 6.55366 24.274
2.46973 6.67207 24.3888
2.39881 6.6036 24.5076
2.48443 6.59782 24.2841
2.4465 6.68857 25.5432
2.56058 6.98332 26.2474
2.53507 7.47535 26.6142
2.6853 6.83525 26.6053
2.71846 7.22914 25.1356
2.36518 6.64418 25.9679
2.51489 6.61591 24.1121
2.37122 6.35272 26.1793
2.72769 6.94915 23.805
2.40251 6.6607 25.25
2.51245 6.65422 24.1217
2.38693 6.64047 24.1116
2.42533 6.89031 26.3044
2.64089 6.96464 25.3526
2.49331 6.65431 24.3155
2.50222 6.57031 24.4894
2.45894 6.2823 24.0248
2.4431 6.73921 25.6739
2.60655 6.42251 24.963
2.58095 6.6603 24.4884
2.39483 6.79107 26.0772
2.58542 6.66281 24.7411
2.45419 7.16252 27.3781
2.73592 7.68242 27.7719
2.5798 7.02506 25.6805
2.48094 7.04577 25.3386
2.43897 6.71854 25.9641
2.63762 6.54231 24.9688
2.43563 6.71292 25.5582
2.42105 6.79937 26.0309
2.3978 6.35517 25.9916
2.50205 6.47575 24.3953
2.43975 6.86074 26.8467
2.57789 7.16109 26.881
2.5458 6.79587 25.8191
2.58896 7.04338 25.3857
2.32204 6.73054 26.0732
2.50584 7.45146 27.2615
2.61978 7.18001 27.7059
2.58702 7.00105 25.9314
2.52251 6.36727 25.5906
2.58412 7.00783 23.9657
2.34048 6.90465 26.6476
2.49807 6.89954 26.9045
2.45566 6.68804 26.2695
2.54982 7.33568 27.7541
2.57386 7.18606 26.9211
2.40879 6.64776 25.6212
2.42738 6.95756 27.0677
2.49004 6.97424 27.8191
2.61976 7.49116 26.5524
2.47435 6.77776 26.7427
2.54441 6.99011 26.0495
2.44582 6.92301 27.6406
2.49576 6.86537 24.8517
2.58341 7.0138 26.3415
2.37562 7.15427 27.8931
2.65321 6.60783 25.7881
2.65472 6.87756 25.2107
2.45394 7.35304 27.9911
2.50435 6.25435 25.1175
2.51427 6.9934 27.0396
2.45627 6.46894 25.9494
2.46142 7.22303 25.9099
2.34987 6.75146 26.3737
2.42027 6.67139 25.3083
2.27806 6.69314 26.0832
2.4049 6.925 25.8167
2.41572 6.86285 25.2695
2.40369 6.92026 26.8315
2.50698 6.39718 25.3373
2.45389 6.69434 25.5239
2.38565 6.61483 26.5881
2.52844 6.93736 24.0084
2.17396 5.86265 25.5664
2.40854 7.47254 27.5428
2.58653 7.42034 28.2706
2.46175 6.74872 27.6269
2.58746 7.29474 26.8919
2.51413 7.00004 26.5832
2.50094 6.65792 26.7686
2.54433 6.99804 27.4663
2.42862 6.62159 25.4495
2.4544 7.09084 26.4833
2.51327 7.33858 26.5061
2.36747 6.34605 25.3653
2.38744 7.36556 27.4915
2.53401 6.62002 26.1595
2.32973 7.04598 27.1309
2.47433 6.57996 25.1793
2.41541 6.65493 27.57
2.42796 6.59514 23.7846
2.30625 6.46069 27.6345
2.53105 6.79159 27.6083
2.49042 6.64749 25.6456
2.46548 6.77055 25.2046
2.32445 6.80197 25.8272
2.46819 6.63098 26.3073
2.43073 6.4601 24.2063
2.2551 6.27266 25.9455
2.33904 6.97017 26.6884
2.46113 6.24168 25.8671
2.53321 7.54572 27.7274
2.47625 7.02888 26.4681
2.36315 6.46184 26.3121
2.4109 7.3719 27.7268
2.43126 6.48059 27.2264
2.47873 7.33702 27.5638
2.4602 6.8342 26.9768
2.46485 7.06069 26.6628
2.35878 6.52287 26.4817
2.42484 6.82846 26.7122
2.42617 6.55959 25.8439
2.29311 7.22792 28.0636
2.59499 6.82115 26.6866
2.37545 6.71524 27.1058
2.50674 7.16534 25.8986
2.35204 6.62917 28.3853
2.5782 7.01135 26.5562
2.29544 7.11381 27.8106
2.40038 6.7184 26.0603
2.31699 6.7638 28.3792
2.56471 6.96473 25.8548
2.3427 7.5357 28.6607
2.48176 6.56299 27.5311
2.39139 6.78354 27.102
2.47707 7.00552 26.7379
2.45095 7.30615 28.4758
2.48558 6.80602 26.4504
2.44441 6.96697 28.4497
2.50331 7.15824 27.1647
2.35858 6.6371 25.915
2.50819 7.20462 26.6653
2.36838 6.79143 27.1777
2.46429 6.41027 27.4776
2.46964 6.79791 26.8251
2.42173 7.15488 27.0466
2.38188 6.78984 27.1215
2.36373 6.93437 27.2318
2.32975 6.54215 26.7199
2.29 6.86551 26.3527
2.37778 6.43226 26.96
2.3951 7.11791 27.6378
2.47661 7.19555 26.6323
2.47856 6.77048 28.2215
2.39253 7.68761 28.8485
2.55207 7.10353 26.5949
2.30506 6.301 25.8068
2.29857 7.41176 29.3626
2.44246 7.05578 28.1925
2.43323 7.10837 29.7268
2.59868 6.85338 25.7937
2.22862 7.11324 29.4124
2.62875 7.16309 27.7679
2.47372 7.38513 28.9292
2.52645 6.44109 25.5286
2.26982 7.04023 30.4251
2.5446 7.47323 27.6182
2.38486 6.93695 28.039
2.46543 6.88076 26.26
2.34586 6.64702 27.3558
2.35163 7.29655 28.3783
2.36337 7.13035 27.1903
2.37103 6.75199 27.4411
2.3706 6.7267 26.1084
2.33988 6.84532 29.238
2.50895 7.04496 27.531
2.42595 6.87853 27.4057
2.30213 7.02524 27.3415
2.32263 7.33849 28.0419
2.43703 6.76848 27.9235
2.45599 6.81453 26.3489
2.30279 6.90643 27.9662
2.4485 7.10426 27.2278
2.45929 6.54052 26.7723
2.37992 6.96256 27.4171
2.38966 6.71331 26.9782
2.24149 7.55187 30.0144
2.55261 7.06938 27.3898
2.40049 6.68876 25.3863
2.38895 6.54021 26.0565
2.21889 6.80908 25.5302
2.26972 6.55627 27.1417
2.42574 6.88468 29.2871
2.49555 7.21128 28.8429
2.40819 6.90618 28.6796
2.59867 7.53865 28.9564
2.51354 6.67006 27.2196
2.46532 7.17807 28.4975
2.45591 6.77362 26.8564
2.34205 7.05311 26.3241
2.25249 6.74162 28.0608
2.46207 6.8983 28.5245
2.36126 7.11949 26.2115
2.36585 6.32374 25.0168
2.33875 6.43548 26.1225
2.30196 6.86141 27.9698
2.47065 6.87584 27.498
2.3571 7.31172 26.0696
2.40902 6.53351 28.2748
2.57467 7.21349 26.8833
2.43489 6.38732 28.0053
2.43971 7.48779 27.9288
2.45967 6.86352 27.5983
2.41894 6.559 27.1555
2.51213 7.64236 30.81
2.60933 7.12951 27.2729
2.4711 6.45348 27.5752
2.35276 6.6715 27.6812
2.48645 7.60698 30.0841
2.61787 7.1941 26.8453
2.30242 6.58983 25.7812
2.26209 6.92559 30.5296
2.59636 7.59311 27.3247
2.45368 7.32095 27.4082
2.30516 6.71316 29.7097
2.45378 7.379 28.5993
2.46461 7.13019 31.0904
2.63071 7.98768 28.8949
2.52029 6.94863 27.7954
2.48347 6.66098 27.6379
2.37518 6.77895 25.8382
2.24489 6.90855 27.4527
2.39387 6.89494 28.1343
2.40474 6.72291 27.6132
2.36576 7.36273 31.5133
2.70105 7.45439 28.67
2.41042 7.00179 27.8723
2.44994 7.795 31.2196
2.5375 6.8678 26.5445
2.28773 6.7743 27.9483
2.34098 7.53309 28.1253
2.48142 7.23243 27.6244
2.40246 7.04761 29.7749
2.51821 7.03216 28.8447
2.47532 7.06331 26.9977
2.38952 6.82265 29.2685
2.46637 7.19355 27.9141
2.35128 7.12071 28.0476
2.40012 7.12593 30.0063
2.55271 7.34411 27.2269
2.36029 6.90268 28.5975
2.3663 7.03014 29.1144
2.49906 7.44019 28.8996
2.48193 7.60913 29.5038
2.40129 7.14281 31.3869
2.59751 8.03187 32.8277
2.74767 7.9965 31.3969
2.53702 0 0