# pn-170911/RbIIA-31-RbIIA-1280-1959.psd
# Power spectrum* (dif=0,1,2) (really just |FT|^2)
# NOTE: only the first half! (symmetric)
# weeks: 1280-1959
# 207 clock-days, 82 excluded
# PSD: 1441
15548.8 0.622747 0.00660184
798003 15.8602 0.0112192
2.02947e+06 35.7403 0.0140404
617912 20.7655 0.0105635
392467 22.7022 0.013233
204602 16.7587 0.0183414
130290 15.0309 0.0148692
84651.6 14.1684 0.0247688
68457.1 13.2365 0.0185003
38818.9 10.0058 0.0149097
50769.1 19.4464 0.0116229
35932 18.7933 0.0256247
31925 15.2437 0.0259041
34039.9 20.7223 0.033816
25425.8 14.7625 0.029863
25795.3 19.2775 0.0376043
19595.9 16.7319 0.0366424
18481.9 22.7898 0.0468012
9738.35 9.70546 0.0272787
9765.64 12.2153 0.0355402
8905.24 9.94545 0.0384548
6111.85 7.25696 0.0328204
5551.27 6.74349 0.0259838
6966.94 12.2068 0.050559
7371.15 10.7681 0.0493115
6617.27 11.5349 0.0358849
4210.18 7.28373 0.0319687
4141.49 10.5635 0.048409
5470.33 13.0339 0.0741822
4205.32 13.2237 0.0366488
4420.26 12.5429 0.0594007
3348.09 8.97083 0.0383103
2918.58 8.74623 0.0522896
1942.37 5.40637 0.0336419
2266.53 7.04245 0.0696885
2349.47 8.23054 0.0711883
2562.84 9.31039 0.0843319
2340.04 9.4893 0.0612178
1722.56 8.89351 0.068539
1765.16 8.68208 0.0715021
1994.67 8.6491 0.0786376
2834.62 14.4819 0.0806
1541.51 7.21479 0.0624547
1270.85 7.10164 0.0548032
1365.9 9.07034 0.0979686
1271.9 7.46811 0.0907875
1675.99 9.80036 0.117188
1251.91 6.54457 0.0765196
1611.2 11.1536 0.158336
1200.79 6.69621 0.0720061
1011.93 6.79028 0.079837
1166.97 8.55908 0.114333
1237.28 8.00695 0.11986
963.017 6.10054 0.0795007
837.032 8.32585 0.100197
824.597 6.07444 0.102981
910.927 6.87483 0.106987
997.29 7.83651 0.14121
826.229 7.43164 0.121492
942.8 8.97612 0.154468
749.297 6.75118 0.126681
1006.25 10.3657 0.166226
490.459 3.89815 0.0865019
570.917 6.89205 0.146747
523.423 4.95864 0.103501
745.741 7.74732 0.16513
642.726 6.56686 0.147262
431.073 4.57522 0.108201
505.233 5.63432 0.136597
493.596 5.4023 0.109341
451.421 4.93165 0.114844
516.71 6.01767 0.144897
461.273 6.1728 0.165865
356.499 3.94364 0.115252
384.066 5.57075 0.138024
386.466 4.87633 0.138019
460.093 6.47452 0.189611
411.488 5.76944 0.179062
390.004 6.05602 0.163952
377.924 5.70318 0.167729
321.335 5.2397 0.172373
301.312 4.55285 0.131256
295.199 4.22577 0.123118
324.956 4.81413 0.157647
332.172 5.32925 0.163358
349.717 5.64666 0.195618
290.917 4.05334 0.1538
285.763 5.47186 0.207809
285.718 4.72388 0.178627
322.057 6.0902 0.208339
270.44 4.66154 0.182592
243.511 4.23692 0.165344
253.957 4.27508 0.165461
304.527 7.19603 0.267278
251.949 5.12254 0.210311
253.673 4.44237 0.183928
297.832 5.67062 0.251053
209.767 4.58225 0.204188
248.552 5.34892 0.234372
271.487 6.54548 0.308852
215.553 4.70731 0.229344
186.808 3.88727 0.177256
244.198 5.55074 0.27892
227.264 5.65804 0.259684
180.674 4.17165 0.205067
213.768 6.3608 0.298763
202.803 5.07068 0.277371
225.482 6.37189 0.353913
181.334 4.10299 0.240523
185.97 4.81431 0.265617
181.512 4.50714 0.240459
177.534 4.69651 0.275459
155.365 3.89812 0.233586
173.368 4.81262 0.296602
145.406 3.89897 0.222638
172.207 4.849 0.289628
158.715 4.78644 0.291695
168.278 4.68258 0.303617
189.679 6.59156 0.404517
142.94 4.65483 0.313629
148.743 5.06688 0.327191
163.507 5.82209 0.394665
175.293 5.05114 0.331429
126.113 3.65857 0.267075
128.502 5.03691 0.343225
106.883 4.49321 0.313532
143.181 5.09411 0.353131
152.242 4.92949 0.365917
151.369 5.92229 0.454174
147.745 5.74759 0.415341
112.1 4.18652 0.339417
111.34 4.20459 0.309428
117.452 4.03709 0.347404
136.683 4.75385 0.372703
108.967 4.53519 0.37476
116.837 5.17369 0.424325
98.7039 4.02362 0.322766
113.088 4.99598 0.423064
121.173 5.46179 0.501021
127.386 4.71167 0.400386
104.478 4.30511 0.392578
111.166 5.47121 0.465451
97.2307 5.27813 0.515605
109.172 4.09669 0.371904
108.203 4.44959 0.425961
95.6209 4.36012 0.430364
110.482 4.47718 0.420307
103.245 4.84547 0.472476
88.8798 4.60858 0.486524
84.2055 3.5527 0.376327
106.359 4.3876 0.450889
99.8112 4.60058 0.452997
98.5385 4.89107 0.536746
89.9865 4.3033 0.457364
92.4444 4.8518 0.561756
112.149 6.89463 0.76391
95.9356 4.3572 0.444912
93.58 5.3411 0.559138
77.8296 4.11489 0.477041
76.479 4.11623 0.495456
88.9417 4.53868 0.529176
87.5559 4.91504 0.576036
84.4997 5.17425 0.639829
85.8212 5.41692 0.643623
81.8296 4.57355 0.5552
74.1392 3.59462 0.448165
76.2008 4.34549 0.546938
72.9553 4.10845 0.511632
73.9115 4.61224 0.564835
66.6417 4.36557 0.570359
71.1214 4.45437 0.566918
64.8847 3.88676 0.518653
82.2146 5.99866 0.765939
66.5123 3.69948 0.513427
64.3684 4.86577 0.700893
67.6741 4.40242 0.624604
72.8821 4.83709 0.694103
80.6238 4.90991 0.688004
61.0092 4.11475 0.579778
61.6938 4.31836 0.619511
67.6981 4.48748 0.66251
61.6336 4.30522 0.655048
62.8888 3.86925 0.598784
66.8501 3.76058 0.58343
66.0509 4.30353 0.683697
57.2329 4.20132 0.635089
57.6987 3.772 0.611558
57.8618 4.05517 0.646565
59.8507 3.95758 0.660501
61.2419 4.71489 0.756571
57.8829 4.45466 0.738126
63.963 4.89989 0.807911
57.9681 4.57462 0.760622
56.9956 3.97485 0.689668
60.3754 4.09316 0.712671
56.996 4.0055 0.704093
51.3865 4.05168 0.738551
52.935 3.85174 0.691514
49.7581 3.75601 0.719699
54.478 4.25149 0.779632
53.9638 3.93128 0.707485
48.2813 4.05804 0.75524
46.7563 3.66113 0.689131
53.3222 4.19401 0.79146
51.8094 4.42668 0.869758
49.4525 4.0652 0.787553
47.516 4.19614 0.806952
46.4389 4.11831 0.829468
46.1274 3.74736 0.735947
48.1865 4.09326 0.862786
52.2669 5.19482 1.05293
42.26 4.24256 0.87598
43.6535 4.26883 0.9063
44.718 5.48152 1.11643
45.4677 4.14423 0.927895
47.046 3.39661 0.744317
45.6444 3.90068 0.835303
46.4755 4.34277 0.907115
40.952 3.73939 0.84403
47.8181 3.96105 0.885749
36.562 3.30313 0.782499
44.5002 4.31321 0.936025
45.7825 4.55909 1.05063
42.9547 3.56992 0.844255
36.3624 3.63238 0.832105
42.9284 4.4567 1.07072
43.4577 4.06708 0.978292
41.0081 3.69377 0.914313
37.6744 4.05621 0.964513
35.5 4.30728 1.04284
35.0783 3.54842 0.863366
41.6338 3.98055 0.977632
40.2928 4.04508 0.991562
36.1553 3.60857 0.897494
31.2408 3.67259 0.880904
40.0647 4.18167 1.07933
34.7393 4.37613 1.13109
42.1364 4.12669 1.05146
36.8001 3.6593 0.952268
36.3869 3.87909 1.03339
31.4075 3.53665 0.988659
33.9083 3.81955 1.09212
36.8974 3.71594 1.00409
31.8484 3.64973 1.04517
37.1025 4.18375 1.15698
36.4539 5.14048 1.38697
32.723 4.05211 1.13308
34.948 5.23216 1.3804
30.7954 3.59519 1.05482
36.8367 4.04323 1.11059
32.8137 3.67814 1.06068
36.6252 4.3261 1.20646
32.3949 3.74858 1.11718
31.4152 3.51196 1.11269
32.7904 4.19691 1.17992
34.1879 4.38832 1.33559
29.6814 4.34457 1.35332
30.4715 4.13558 1.34857
31.25 4.64523 1.39801
33.8095 4.42936 1.3063
28.7092 3.70958 1.20949
30.4308 3.78242 1.16541
32.0736 4.14068 1.28122
28.2071 3.38111 1.03049
31.6275 4.38755 1.42288
30.3046 3.51986 1.13335
29.8375 3.93558 1.32478
28.9477 4.10563 1.30677
27.6074 3.87911 1.27079
26.8583 3.54882 1.21865
30.5335 3.83132 1.31813
30.6903 4.07806 1.368
27.1832 4.16739 1.44677
27.1122 4.13455 1.42541
28.8529 4.0858 1.4201
27.9937 3.9428 1.38979
30.6938 4.03424 1.35254
27.1493 3.66833 1.30917
28.7013 4.31207 1.53731
30.4843 4.23685 1.5448
25.3602 3.69594 1.32944
28.4694 4.26134 1.5352
27.5219 4.06611 1.39724
26.9787 4.11386 1.51312
26.2324 4.48308 1.68574
29.3053 4.3782 1.64453
27.5281 3.89704 1.47689
27.835 3.91668 1.46434
24.2827 4.21285 1.59796
24.3334 4.03401 1.57255
24.1079 3.87621 1.54963
29.241 4.11024 1.56109
29.9427 4.51051 1.7434
24.3938 4.13699 1.64379
24.9325 3.83659 1.50391
24.4865 3.92117 1.62116
25.6262 3.65135 1.42022
27.1142 4.67213 1.93286
29.5588 4.59287 1.89318
27.8797 4.31394 1.78629
22.8135 3.78731 1.57543
22.6632 3.78861 1.6
21.6608 3.96039 1.65952
27.0113 4.18775 1.74681
25.5804 5.17533 2.15308
20.789 3.7079 1.54673
23.5347 4.35562 1.97222
22.9667 3.75264 1.64173
23.3993 3.65395 1.56772
23.338 3.92628 1.79145
23.0988 3.93866 1.65846
22.3529 4.38736 1.90717
22.6536 4.75519 2.07411
21.9914 4.15293 1.89141
22.806 3.77753 1.63316
23.0225 4.25472 2.01216
21.8809 4.2655 1.98217
21.2276 4.53537 2.00132
20.6789 4.56388 2.14452
20.6342 3.74619 1.69389
22.4131 4.11247 1.8649
19.8432 3.51875 1.7094
23.6129 4.54447 2.14076
20.9812 4.03574 1.88321
22.8506 3.63969 1.77676
22.7996 4.67517 2.23074
20.9015 3.82718 1.84551
20.8953 4.12269 1.99143
21.3557 4.72366 2.42743
19.6304 4.37712 2.11741
19.6029 3.69523 1.84845
23.3471 4.30331 2.07049
20.0286 3.92543 2.04447
21.4959 4.98338 2.45417
19.4907 5.20316 2.68731
21.5146 4.72877 2.42522
23.981 4.82346 2.44983
19.4303 4.1717 2.11005
18.3669 3.9603 2.08319
18.5077 4.49256 2.35993
22.7097 4.34156 2.15298
17.718 5.05533 2.7234
19.4606 3.92227 2.14338
19.8749 4.00557 2.18784
17.5479 3.43734 1.87042
18.8275 4.10964 2.13428
20.1916 4.83785 2.5141
17.7435 3.83243 2.13389
18.8813 4.00725 2.23001
18.3796 4.05183 2.27524
18.249 4.32232 2.33416
20.4096 5.20141 2.91915
18.4714 4.23998 2.23013
18.0126 3.97133 2.3792
19.2999 4.60425 2.54085
16.7989 3.94927 2.2884
20.5996 5.0574 2.84141
17.6808 5.01415 2.86906
18.0359 4.10546 2.40797
20.2408 5.06702 2.94899
20.9796 4.94707 2.83078
18.3384 4.70142 2.7222
15.869 4.55338 2.82954
18.154 4.60479 2.83304
21.4375 5.03773 2.82778
16.4638 3.73164 2.28398
18.5275 5.91574 3.46365
16.3836 4.2578 2.71539
16.109 4.8453 2.97663
20.9857 4.73791 2.7705
16.4246 4.0954 2.59896
17.0075 4.6334 2.87749
17.6523 4.36343 2.65549
15.5023 4.40415 2.84343
16.6117 4.51297 2.92285
18.2083 4.17655 2.51052
17.2673 3.72567 2.51566
15.8641 4.20914 2.72077
16.7777 5.20363 3.21845
18.3422 5.17857 3.24238
17.044 4.55282 2.95261
17.3312 4.62264 2.99827
14.1986 4.17803 2.67515
16.4095 4.48795 3.03677
16.7515 4.10654 2.72587
17.3161 4.85689 3.23725
14.6712 4.38603 2.94045
16.2771 4.53234 2.98005
14.6945 4.47876 3.13691
15.9772 4.92332 3.19936
14.5241 4.14923 2.80309
14.5949 4.58921 3.03442
15.1378 4.36126 3.10067
14.7338 3.98552 2.74065
12.2817 3.77492 2.66018
15.5176 4.83638 3.26795
16.9197 4.52424 3.12157
17.2469 4.83845 3.38343
13.2694 4.36574 3.2323
13.8179 4.36873 2.96512
15.4615 4.24198 3.20246
16.2483 4.64425 3.30551
13.6103 4.47442 3.30883
14.8414 4.25117 2.98996
16.1517 5.38026 3.97239
15.5783 5.06895 3.75255
14.0428 4.64065 3.46181
15.104 5.01299 3.81778
14.888 4.86891 3.85949
13.2562 4.27548 2.9538
13.7233 4.97096 3.7718
14.4155 5.41647 3.91425
15.9272 4.67207 3.57181
13.271 4.17387 3.23048
13.0498 4.248 3.18583
12.1149 4.15156 3.18672
13.8501 4.73064 3.76478
14.0939 4.94254 3.61885
14.0805 4.06522 3.23645
13.1557 4.84158 3.87956
14.1954 4.83815 3.57967
13.9339 4.7881 3.72541
12.8769 4.27358 3.46326
12.5069 4.21433 3.43333
14.4301 4.86523 3.96094
15.4472 5.42714 4.36752
14.2374 4.81443 3.73939
14.0063 5.12864 4.00772
12.327 4.92135 3.89262
14.3159 4.96233 4.09671
13.2926 4.86698 3.7635
13.3933 5.78802 5.15704
11.8183 3.99077 3.07791
11.8755 4.46694 3.69649
12.9253 4.9715 4.13814
10.8474 4.25236 3.81747
12.9257 4.80262 3.86121
10.9942 4.69254 4.13155
12.4504 5.51131 4.46395
12.0974 4.81233 4.4432
12.491 4.72422 3.99235
12.6563 4.81629 4.30319
13.0942 5.1374 4.20258
11.8691 5.13935 4.30058
10.6188 3.98659 3.58989
12.2135 5.04416 4.27365
12.5924 4.70375 4.00575
12.596 4.5219 3.91178
11.8134 4.51225 3.89974
10.6434 4.10212 3.75648
11.4258 4.50285 3.85187
11.2521 4.83851 4.41883
12.4398 4.55764 4.14884
11.7264 5.06002 4.59814
11.2171 4.89469 4.41124
10.8975 5.07675 4.57327
13.1954 5.03391 4.65702
11.4104 4.67313 4.16491
12.1715 4.50203 4.32093
11.8306 5.09486 4.67943
11.1494 5.48574 4.90387
10.5633 4.5471 4.12001
11.8979 5.36844 5.03165
11.0202 4.67872 4.60198
11.8735 5.20809 5.00726
11.3207 4.67139 4.58626
11.3612 4.8679 4.2729
12.3862 5.53138 5.00031
11.6705 5.12867 5.0835
12.7557 5.28611 4.93998
9.65951 5.06331 4.9901
9.75558 4.32794 4.44145
11.1418 5.58472 5.29341
12.2977 5.27005 5.0718
11.0463 4.46584 4.34803
10.635 4.94781 4.75101
10.0703 5.12905 4.99004
10.8624 5.2603 5.18232
11.2417 4.97785 5.20078
12.3266 5.41575 5.02195
11.9222 5.35178 5.45975
10.0707 4.605 4.73817
10.2012 5.4128 5.42839
10.6313 4.47626 4.43053
10.7176 4.83785 5.02162
11.4267 5.15642 5.31065
10.1518 5.0684 5.08606
9.99039 5.85065 6.07666
10.9222 5.01677 4.90025
10.486 5.04584 5.36085
10.9253 4.5925 5.04782
11.5989 5.45808 5.307
10.1998 5.00883 5.56052
10.3149 5.49897 5.47244
11.0709 5.17185 5.32251
10.4555 4.58189 5.02656
10.6399 4.86792 5.19891
9.4462 4.47738 4.61344
7.96665 4.08158 4.63153
9.97896 4.57201 4.7912
11.2333 5.21836 5.77931
11.877 5.46863 5.49658
9.68351 4.20438 4.70473
10.064 5.82239 6.51948
10.1565 4.77655 5.41645
10.8266 4.75869 5.04015
10.2818 4.56563 5.11176
10.1013 4.34767 4.7148
9.72046 5.16296 5.76614
8.26187 5.00882 5.77407
10.1967 4.9975 5.16593
10.195 5.07808 5.82491
11.7743 5.32106 6.04411
11.671 6.07262 6.47355
8.00438 4.58336 6.03165
10.9519 5.57753 5.94032
9.96481 4.66387 5.55032
11.0931 5.2179 5.6475
10.0224 4.86384 5.5902
9.20139 5.06383 5.76912
10.1664 5.43119 6.31739
10.6921 5.3775 5.83751
9.47583 5.12708 6.78785
10.7213 5.12519 6.12052
10.8656 5.07681 5.96721
10.3019 4.79243 5.23954
9.01541 5.58815 6.70896
10.6198 5.64962 6.55851
10.4319 5.22052 6.3662
10.6919 5.11663 5.6546
9.26266 5.22548 5.82954
8.00924 4.14046 5.30616
10.1305 5.40614 6.89924
11.1121 5.18444 5.91929
9.36161 4.79245 5.77155
9.59666 5.13485 6.18469
9.37593 5.18013 6.86162
9.2012 4.5037 5.25611
9.3008 5.19698 6.53963
10.3426 5.443 6.28001
11.4755 5.5528 6.65582
8.72418 4.72136 6.36128
8.63877 5.5115 6.81629
9.60356 5.53801 6.72013
10.9917 5.82471 7.07972
10.3905 5.30945 6.55467
8.49861 4.4532 5.67523
8.20737 4.78362 5.81388
9.15711 4.61567 6.16772
9.53146 4.99025 6.26799
9.42756 4.95994 6.08858
8.96822 4.82652 5.86428
9.50837 4.69397 6.33991
9.38323 5.09751 6.59011
8.59617 4.73438 6.13385
9.67969 5.04327 6.60179
9.83339 4.42573 5.64457
9.81872 5.15006 7.10565
7.6124 4.51203 5.89006
8.84829 4.57617 5.72161
8.77541 4.89476 6.54505
10.2493 4.28238 5.61783
8.54747 4.79784 6.43874
8.02626 5.05711 6.62832
8.75356 5.19768 7.09949
8.41059 5.00194 6.12757
9.05505 5.02795 7.01402
8.54523 4.71193 6.40071
10.1876 4.68667 6.0098
9.62209 4.86075 6.81696
8.36891 4.925 6.19899
9.30652 5.49846 7.38266
10.0219 5.49419 7.68814
9.93653 4.83748 6.43722
7.89266 4.61819 6.46124
7.25696 4.90147 7.10182
9.51781 5.43158 7.45905
9.49865 5.47322 7.88449
9.20984 5.44303 7.60477
8.05857 5.64407 7.75699
9.12366 5.63804 7.65463
9.09529 4.64342 7.08751
9.68318 5.5629 7.39471
8.027 5.222 7.514
10.0702 5.29621 7.6513
9.08234 5.05602 6.78423
7.86911 5.10108 6.98899
7.65396 4.73921 6.95124
8.48322 4.7798 6.23462
8.85258 4.30689 6.83628
8.69583 4.91759 7.04811
7.97014 5.08703 7.22022
8.00904 5.2703 7.39105
9.18378 4.91369 7.0994
9.27523 5.15343 7.71577
8.71039 4.67405 6.46383
8.54113 5.25712 7.44619
8.48645 5.09006 7.0319
8.66392 5.45106 8.13989
8.68348 5.41111 8.49687
8.86795 4.78673 7.30548
8.63856 4.88785 7.10349
7.08307 4.93553 7.46016
7.29915 5.54723 8.12799
8.29595 5.06384 7.90151
11.6652 6.59606 8.93716
8.93218 4.98852 7.54013
7.18933 4.27333 6.00948
6.68612 4.81147 7.68341
8.1198 4.72754 7.07009
9.53 5.12882 7.69454
8.64521 4.46561 7.44247
8.34277 5.84541 8.43842
8.05671 4.49986 7.06104
8.18715 5.00395 7.91037
7.90261 5.0228 8.00307
8.3629 5.92092 9.16312
8.79519 5.34831 7.84757
7.60664 4.75706 7.54874
6.99285 4.49269 7.21547
7.77297 5.27289 7.92869
8.44758 5.31041 8.35877
8.80805 4.808 7.44555
7.46227 4.60553 7.41743
7.57288 4.82994 7.96849
8.18939 5.05614 7.47124
8.28047 4.76574 8.12083
8.22565 4.75689 7.78662
7.61735 4.94694 7.27537
7.4654 4.71714 7.57027
7.80277 5.22207 8.37802
7.15873 4.91439 8.08218
7.18504 4.81664 7.95033
8.67451 4.48842 7.4366
8.64568 5.53831 9.09244
7.24153 4.64527 7.49088
7.03141 5.24838 7.66263
7.24904 4.55953 7.4638
8.12181 4.57656 7.8381
7.29666 3.92616 6.58763
7.34024 5.44336 8.5254
7.1506 5.26354 8.64435
7.68126 4.81739 8.54856
7.31229 4.84038 8.61137
7.78866 5.06777 7.98993
7.34516 4.44086 7.37616
7.95274 4.59181 8.16981
7.14292 4.73632 7.0849
6.5033 4.45495 7.50832
8.08647 5.30516 8.70047
7.56984 4.5448 7.57499
7.01616 5.31395 9.40258
6.25194 5.00088 8.68674
7.59539 4.82492 8.20022
7.85674 5.51037 9.40743
7.44757 4.28411 7.28203
6.24109 5.05775 8.6126
6.48384 4.48562 8.22799
6.97167 4.93946 8.59297
7.55426 5.16279 8.60147
6.79951 4.84066 8.2632
7.50934 5.2683 9.12728
7.04032 5.66453 10.0606
6.55723 4.3812 7.88199
6.43127 5.08053 8.71072
7.24068 4.91144 8.32258
8.09334 4.72539 8.90402
7.27388 5.37855 8.98933
6.52002 4.82779 8.6253
6.37163 5.22305 8.81744
7.17467 5.1525 9.43188
7.95432 5.28133 9.50129
6.4204 4.76748 8.31769
5.91291 4.21545 7.29494
6.82506 4.63937 8.69975
6.70529 4.50497 8.15527
7.15047 4.5763 7.73123
6.75759 4.60502 9.18651
6.38019 4.69021 8.69288
6.59012 5.14164 8.38581
5.18831 4.50517 9.13323
6.40897 5.15565 9.29982
7.60854 4.61065 8.74569
7.27265 4.99293 9.24584
5.80683 4.98459 8.65284
5.70777 5.03771 9.64105
6.38726 4.86512 8.80793
6.89119 4.95597 9.50199
6.4907 5.07728 9.15566
6.16221 4.49 8.46017
6.41363 5.00169 9.20571
5.92034 4.72764 9.42354
6.92219 5.68075 10.1148
5.97452 4.48239 8.63623
6.33872 4.46806 8.43806
6.33616 5.53076 9.94278
5.74187 5.58408 11.0418
6.0375 4.18075 7.77874
6.79019 4.93627 9.06757
6.67967 4.80538 9.05323
5.72534 5.36762 10.6626
5.13278 4.93581 9.61839
6.30718 4.53208 9.13328
6.75715 4.89679 9.34104
6.51165 5.05567 9.71609
5.8265 4.95174 9.38256
5.64169 4.65217 9.39755
5.55991 4.90102 9.1124
5.7508 4.53824 9.74314
6.01792 4.91966 9.59678
5.93683 4.58954 8.62892
6.34182 4.87136 9.22755
5.46044 5.64864 11.2393
5.38839 5.24579 10.4578
5.95541 5.17406 10.4162
6.01983 4.33795 7.8333
5.94871 4.55141 9.61401
5.15201 4.79541 10.2125
5.85756 5.14649 8.96306
5.86205 4.93178 9.08181
5.71702 4.55528 9.49417
5.75367 4.85533 9.97395
5.28387 4.01425 8.63968
5.23135 4.81972 9.67547
5.51011 4.58101 9.19293
5.28162 4.55281 8.98012
6.57978 4.90078 9.92307
5.76218 5.34813 10.5742
4.63861 4.45921 9.28189
4.98922 4.81282 9.88888
5.02392 4.21488 9.3745
6.38602 4.63569 9.37538
6.26657 5.4832 11.5001
5.25089 5.1386 10.1355
4.6303 4.77055 8.82592
4.57232 4.26982 9.46087
5.54977 5.33452 11.1061
5.65932 4.87906 10.2629
5.92395 5.71372 12.1479
4.81475 4.27961 9.11178
5.42533 5.15074 9.06918
4.77016 4.55201 10.3605
5.53104 4.48932 9.91826
5.84952 5.39182 11.3064
6.01219 5.2734 11.1044
5.1174 5.1891 10.6798
5.21657 4.88159 10.0601
5.18412 4.9008 10.2498
5.47712 4.40039 8.92679
5.49383 4.92166 10.5767
4.65853 4.09508 9.0344
4.70557 4.66892 9.54296
4.6089 4.34058 9.4067
4.9944 4.13391 9.7175
5.65506 5.34984 11.6936
5.34067 4.97048 10.7489
4.52199 4.86035 10.9789
4.66193 4.3549 9.03017
5.06373 5.0653 11.5457
5.50148 4.86004 10.8046
5.49439 5.49703 10.9729
4.74589 4.58471 10.1751
4.58405 4.29441 9.20236
4.70055 4.63072 10.1084
5.26958 4.93949 10.9638
5.29674 4.81645 10.5993
4.00527 4.65782 11.1514
5.15894 5.33444 10.7663
4.54146 4.68174 9.82152
5.20097 4.91206 11.0416
6.06931 4.72481 10.6328
4.92852 4.60827 10.3322
4.34785 3.77238 8.70302
4.48115 5.03666 10.5768
4.73137 4.80661 11.3882
5.28567 4.63373 10.0868
4.72914 5.01805 10.9727
4.90327 4.29782 9.73607
4.38185 4.5441 10.0086
4.06077 4.79509 10.4839
4.7376 4.25737 9.63255
5.572 4.98249 10.3483
4.76335 4.79954 11.1337
4.81449 4.63869 11.1678
4.32681 4.64829 10.645
5.05433 4.46571 10.2133
5.14635 5.13886 12.5427
5.36802 4.86854 10.925
4.7403 4.59544 9.38263
4.62103 5.21859 12.4153
4.92384 4.81737 11.1163
4.82275 4.28132 9.85213
5.20554 4.62531 11.112
5.26447 5.0753 11.2918
4.31241 4.81016 11.2278
4.55624 5.32757 11.9422
4.37386 4.5243 11.2234
5.25758 4.71831 10.8341
5.23735 5.00051 11.6795
4.69373 4.7896 11.228
4.2418 4.45776 10.1056
4.13559 4.52398 11.0414
5.32262 4.91331 11.0094
4.79879 4.74571 11.5453
5.00346 4.86552 10.9631
4.36215 5.05247 12.1982
4.19394 4.16314 10.6422
4.51881 4.45412 11.5955
5.19182 5.18496 11.6446
5.50053 5.19188 12.538
4.93807 4.86213 11.7159
4.23887 4.70808 11.9905
4.64774 4.71132 11.7705
5.06405 5.66277 12.8134
5.30545 5.00871 12.6243
5.2655 4.63665 11.7322
4.63083 5.23804 11.7786
4.3898 5.25805 11.8574
5.34062 4.89572 11.2559
5.09646 4.55931 11.0964
4.61101 4.4154 11.2031
4.45529 4.80306 11.4168
4.54733 5.15305 12.1844
4.64011 4.77457 11.9422
4.75924 4.71629 11.0855
4.80071 4.81199 12.9743
5.53418 5.22511 13.387
4.98008 4.96438 12.0033
4.43957 5.06895 12.4169
4.46724 4.76455 12.2175
6.09093 5.09213 11.9176
4.72174 5.30767 12.5629
4.53577 4.56428 11.5357
4.02608 5.13908 13.3263
4.91089 4.74327 11.5242
4.92988 4.34038 11.0036
5.17283 5.26943 12.6527
4.72775 4.29315 12.2755
4.75593 4.87678 12.1508
4.96879 5.03463 11.8968
4.69822 4.83455 11.5174
4.92492 4.26002 10.9497
5.27064 5.36466 13.1939
4.35264 4.88375 13.5378
4.32885 4.85254 11.4395
4.13586 4.81669 12.4601
5.3169 4.53743 11.6267
5.68126 4.8651 11.8319
4.36354 4.848 12.3427
4.01822 5.09513 13.9868
4.42547 5.44485 13.2984
5.29891 4.98391 12.2434
5.27503 4.88947 12.4983
4.80643 4.74205 11.5089
4.52302 4.95235 12.9046
4.27966 4.70243 13.2935
4.4393 4.9919 13.5759
4.8568 5.25114 13.2611
5.84388 5.70861 14.1003
5.4791 5.44291 14.0319
4.45781 5.74047 14.6077
4.53591 5.1711 14.9218
5.27859 6.02269 15.5558
5.81679 5.00605 14.5888
5.37217 4.69656 11.902
4.68708 5.48966 13.5428
4.73205 5.59529 14.591
5.06951 4.86771 12.5304
4.83154 5.39874 14.322
4.94831 4.92329 12.4259
4.97506 4.60055 13.0611
4.70243 5.05845 12.9468
4.36223 5.15346 13.6917
4.86485 5.04995 13.5409
5.23607 5.50324 14.2146
5.53529 4.30512 12.1591
4.65145 5.08308 13.9044
4.21932 4.78547 12.5019
5.07249 5.0063 14.2147
5.71982 5.64146 14.0561
5.21009 4.72744 12.2249
4.17518 4.61486 13.0383
4.63939 5.17129 13.3778
5.02988 4.78788 12.3193
4.35435 5.07592 13.5377
4.8907 4.56159 12.408
4.79422 5.22393 13.9632
5.41196 4.84894 13.1728
4.31206 4.97793 12.6719
4.34012 5.0856 13.3761
4.83253 4.72378 14.1715
5.69638 4.68635 12.5389
5.27748 5.17682 14.2054
4.38286 5.00442 13.0177
4.30859 4.5406 12.1394
5.23059 4.828 13.9506
5.6093 4.73457 11.7456
4.39749 4.67648 12.8249
4.7427 5.05677 12.824
4.90974 4.49825 14.1917
4.49811 5.22296 14.7791
4.85045 5.12167 14.1587
4.71573 4.71561 14.0695
5.699 4.83691 13.6097
4.53199 5.54633 14.3905
4.13537 4.54322 12.1687
4.60433 5.04423 13.7464
5.32272 5.55282 15.7482
5.40884 4.81613 12.9107
4.17737 4.68916 14.1984
4.36656 4.43334 13.873
5.12632 5.71981 15.0262
5.1597 4.7566 13.0615
5.12478 4.91856 13.6493
4.78047 4.8659 13.1976
4.95372 4.73533 13.496
4.59968 4.83774 12.9118
4.20116 4.38883 13.079
4.5046 4.78951 12.9056
5.19109 4.92353 15.5349
4.84092 4.99232 13.6079
4.03849 4.99794 14.3857
4.01664 4.91535 12.04
4.72027 5.40785 16.5599
5.32523 5.2824 15.4995
4.23407 5.45898 15.8566
4.39931 4.60752 13.3079
4.24996 4.59855 14.6821
5.27754 5.42519 15.2014
4.87862 4.97179 13.7492
4.85386 4.83329 14.8139
4.90344 5.68805 15.0079
4.6733 4.77243 14.0112
4.08673 4.62489 13.2719
4.2542 4.54583 14.2773
5.13774 5.43344 16.0333
5.24503 4.65222 14.5354
4.16479 4.45217 12.7606
4.2264 5.39375 13.4846
4.33568 4.98022 14.5307
4.85025 4.85992 14.7662
5.00786 5.0449 15.0098
4.20937 4.85177 14.3977
4.19509 4.47192 12.7102
4.16942 4.83033 14.2125
4.48797 4.58105 15.4618
4.67499 6.20118 15.8925
4.30112 4.28711 13.3626
4.75294 5.68819 16.2143
4.09828 5.09811 15.7028
4.16917 5.11389 17.026
4.54988 5.08859 14.0998
4.67373 4.92517 13.8356
4.26143 5.01182 14.8456
3.60644 5.21115 16.796
4.43814 5.26571 14.6114
4.99159 4.39831 14.0554
4.82471 4.7984 14.5042
3.89746 4.72682 13.5052
3.88322 5.06647 14.5051
4.18129 4.59971 14.5038
3.93804 5.01768 14.6944
4.33101 4.38278 14.4763
4.51696 5.55147 16.2199
4.39105 5.21134 15.9834
4.23535 4.67061 13.7535
3.79697 5.27721 16.412
4.68666 5.0228 15.1975
4.74327 4.8782 15.239
4.20292 5.63954 16.4591
3.54477 4.88194 15.5733
4.16142 4.92595 13.6248
4.8287 5.20505 14.9198
4.64244 4.76309 15.5674
4.12476 5.74618 16.9786
3.48096 4.78715 13.8473
3.84973 4.43139 14.0402
3.97811 5.09603 16.6687
4.31484 4.91166 14.4267
4.11219 4.5437 15.8047
4.39535 4.81237 13.3555
4.06394 4.57428 14.3738
3.03193 4.90468 15.2938
4.18964 5.29126 16.2251
5.14132 5.4556 16.0297
4.35214 4.97652 16.5765
3.8182 4.73805 14.0719
3.04502 4.4588 15.0379
4.07572 5.59697 16.4739
4.66136 4.82523 15.0874
4.44485 5.81875 18.5513
4.15305 4.75818 14.0954
3.85818 4.92777 15.1022
3.63259 4.43766 14.717
3.68634 4.70285 13.644
3.64811 4.10897 12.4038
4.09438 5.07986 17.8204
4.45398 4.68063 12.8113
3.40115 5.37375 17.3097
3.70846 4.44337 13.3449
4.43635 5.2775 18.0476
4.63958 4.6887 14.3946
4.18881 5.84478 17.8562
3.43258 4.91228 14.4507
3.10545 4.43698 14.4884
4.07391 4.6224 15.3098
4.27896 4.91668 15.5381
4.10958 4.75322 13.5797
3.50017 4.13906 14.2698
3.75031 5.52601 17.048
3.40699 4.43537 14.0727
3.71921 4.93198 14.912
4.24547 5.07103 16.0221
4.00392 5.26914 16.9112
3.36263 4.86779 14.3463
3.01922 4.77149 14.743
3.64499 4.40664 14.8315
3.97343 4.50285 14.2717
4.05883 5.41667 17.8592
3.52875 4.88095 16.0245
3.09706 5.28086 19.4137
4.19541 5.58935 17.7403
4.14135 4.81491 14.8558
3.52875 4.87476 16.4745
3.50792 6.20997 19.6779
3.30993 4.80519 15.5135
3.20639 4.14636 12.8114
3.73565 5.40528 18.0448
4.09358 5.0214 17.4518
3.97983 5.23526 16.4234
3.5933 5.24509 16.1716
3.19813 5.32702 19.1845
3.88126 5.17079 14.7855
3.87292 5.39001 16.7072
3.83064 4.63258 16.7861
3.6688 5.30992 18.1636
3.45162 5.10479 15.455
3.5363 5.134 16.1514
3.78211 5.0576 15.0511
3.4926 4.34894 14.9838
3.58472 4.8043 16.4501
3.25355 4.452 14.4044
3.03225 4.65766 16.2258
3.33535 5.02728 15.7155
3.48711 5.0751 15.6487
3.83467 4.21078 16.2637
3.94617 4.8743 14.8647
3.07304 4.9972 16.4049
3.03605 4.55149 13.976
3.3883 4.55563 16.3469
3.68818 5.21436 17.6068
3.71413 5.74562 18.4798
3.43322 4.90108 16.2069
3.37027 4.87653 15.3108
3.62603 5.3747 17.8111
3.48843 5.33188 19.612
3.77147 5.56819 18.6084
3.67697 4.71834 16.0309
3.58374 4.9384 15.4419
2.86992 4.51389 13.7233
3.10263 4.40095 16.3747
3.84647 4.79866 15.3537
3.69063 4.36985 14.2702
3.17519 5.19825 18.3182
3.18354 4.80118 15.2999
3.16981 5.40958 18.527
3.45064 4.75007 14.8327
3.58233 4.95926 16.4362
3.45457 3.89385 14.9033
3.2001 4.74483 14.7135
2.85129 4.74336 17.4344
3.65734 4.73342 15.6855
3.46439 4.82212 17.7262
3.69783 5.31449 17.486
3.25438 5.18906 17.3935
3.19352 5.15305 16.7896
3.18269 4.97002 16.9526
3.25946 5.03437 17.2421
3.62817 4.76792 16.4599
3.59414 4.87193 16.6836
3.06229 4.54989 16.6909
3.17578 5.48948 17.294
3.84972 5.04804 17.3148
3.76156 4.69265 16.9495
3.70915 5.05193 15.9926
2.86132 4.2288 15.3817
2.92369 5.62278 18.6759
3.44416 4.94329 18.7212
3.7796 4.90932 16.3921
3.47388 5.42056 18.3163
3.29225 4.92413 16.6227
3.16745 5.69895 18.9856
3.25612 4.93259 16.9951
3.30098 5.29303 19.3566
3.77907 4.94552 16.5811
3.94336 5.2095 17.6408
3.40611 4.86328 16.0068
2.948 5.40174 18.1513
3.22975 5.11852 17.2482
3.55328 4.50383 17.1574
4.05729 5.16506 17.165
3.34102 5.20525 16.9186
3.00304 5.03102 18.2467
3.51293 4.827 18.31
3.89379 5.31169 18.3287
3.6831 5.7166 18.7229
3.57495 4.77693 19.2743
3.44422 4.62991 17.6002
3.3215 5.30644 15.9366
3.26463 4.44449 17.0326
3.90502 5.26104 17.6803
3.79116 4.98807 18.9554
3.58958 4.77625 15.0143
2.94477 4.58672 14.5372
3.14143 5.49014 18.0962
3.24464 4.642 18.4224
3.91738 5.16433 18.6361
3.38142 5.10757 16.7008
2.79951 4.6008 16.7171
3.19041 4.80055 16.8413
3.3544 4.19844 16.6268
4.30783 5.40418 18.3438
3.88871 5.04205 16.4239
3.49828 4.73926 15.8176
3.20554 4.80684 18.3866
3.06318 4.92595 18.3419
3.45038 4.40958 15.391
3.46325 4.67058 18.1497
4.04527 4.98728 17.7772
3.5261 4.87388 16.621
3.17734 4.90142 18.1888
3.52543 5.65002 18.9092
3.64996 5.31721 18.6883
3.94834 4.8478 17.2063
3.11337 5.08424 18.5292
3.23711 4.50626 17.2939
3.50447 5.04742 17.578
3.81236 5.18225 20.4258
3.77307 5.36723 19.7348
3.65303 4.74477 16.55
3.45247 4.99416 16.9507
3.06304 5.21401 20.2112
3.6527 5.42415 18.2391
3.82795 5.42733 18.9589
3.8602 5.41288 20.1275
3.55103 5.57129 19.0996
3.21718 5.14956 19.5775
3.45437 5.43304 18.4518
3.95724 5.28236 19.148
4.50492 5.36546 18.9172
3.6245 5.35318 22.1822
3.73907 5.69108 16.6639
3.27265 5.11012 19.1336
3.48006 5.28881 19.8239
3.96614 5.86477 21.8306
4.01736 5.53351 17.959
3.63198 5.04527 18.8954
3.6054 5.05101 20.1151
3.27169 6.17161 21.4907
3.74493 5.05269 20.4267
4.34508 6.19921 18.9808
3.75001 5.5956 20.9617
3.33225 4.90781 16.9952
3.09402 5.12135 17.7014
3.92995 5.44757 19.1993
3.86237 4.89609 19.0088
3.67126 5.45519 19.9897
3.51498 4.83223 18.0117
3.15184 5.24676 20.3953
3.94815 5.0344 16.3648
3.40555 4.8965 18.7695
3.59828 4.79914 16.7918
3.53509 4.98498 18.5448
3.53189 5.32236 18.3075
2.85651 5.4974 22.3684
3.50234 5.16119 18.4305
3.93731 4.59613 19.2415
4.51466 5.57839 18.2988
3.50414 5.52856 21.6851
3.0782 4.79935 16.2374
3.32705 4.59277 19.0426
3.82295 4.77817 18.838
4.0747 5.25599 19.5695
3.46802 4.78707 16.4263
3.31471 4.87656 17.4653
3.5491 5.55908 21.514
3.71219 5.87049 21.1792
3.83218 5.32405 18.6975
3.72028 4.98269 19.8224
3.88542 5.76927 20.7779
3.16491 5.41265 19.1706
3.22165 4.77694 18.4463
3.87691 4.93429 18.8017
4.39287 4.87337 16.0809
3.49518 4.99517 19.3897
3.19951 4.79969 17.6008
3.02496 4.64679 16.6178
3.72693 4.83072 20.8278
4.15046 5.8146 20.4902
3.79771 5.6347 18.8512
3.09359 3.99002 15.0049
3.17081 4.81598 18.2161
3.05262 4.9491 17.0293
3.55914 4.89657 18.2028
3.47909 4.18871 15.9731
3.62644 4.67098 17.8379
3.31916 4.4899 18.0258
3.19225 5.45621 21.5983
3.40725 5.83444 21.0327
4.00825 4.71672 17.677
3.57219 4.64087 19.0108
3.3654 5.11907 19.3994
3.22932 4.90442 17.6927
3.36149 5.07091 18.9633
3.85268 5.18086 19.2721
3.93755 5.53168 19.2742
3.37838 5.19491 20.8694
3.60351 5.13274 18.564
3.64355 4.95558 20.2621
3.28288 5.21576 17.8823
3.47333 5.03571 19.1374
3.69309 5.07822 17.6318
3.48817 5.14933 20.503
3.11813 5.35319 19.0377
2.91716 4.5839 18.2252
3.50316 5.32526 20.1188
4.34107 5.29166 20.6179
3.45379 5.07477 19.0994
2.87606 4.73204 17.5086
3.25784 5.05758 18.1332
3.58312 4.8227 20.4178
3.82974 5.31854 18.284
3.25272 4.8973 18.6627
3.57956 4.79698 21.0402
3.6101 4.7882 19.3219
3.21271 5.44108 17.7794
3.27395 5.55866 19.6518
3.77845 4.86821 18.5804
3.90332 4.58232 18.5016
3.34112 4.75669 18.6956
2.91767 4.9311 17.7687
3.46425 4.92001 19.2926
3.72027 4.69464 17.2891
3.57886 4.56469 18.9776
2.70688 4.52507 16.9495
2.86042 5.33965 20.2208
3.60809 5.45043 21.7407
4.43799 5.321 18.6904
3.22875 4.48027 19.2472
3.71989 5.50759 19.8473
3.44052 4.90594 18.1843
2.86944 4.83503 18.6319
2.90501 5.0984 21.1063
3.44685 5.26049 19.8227
4.03128 5.21985 20.0199
3.38748 5.7279 21.3142
2.98553 5.38806 20.6114
2.95684 4.94629 18.1351
3.70855 4.76278 17.173
3.43866 4.59383 19.0268
3.12245 4.68163 19.5504
3.35681 5.44353 20.0339
3.60062 5.58258 22.231
3.48135 4.95849 19.9758
3.47944 5.10303 19.1455
3.48403 5.64157 21.7691
3.6179 5.30691 21.3913
3.29078 4.86375 18.3495
2.92052 5.62506 21.8961
3.65516 4.78433 18.8487
3.78263 5.93969 22.9797
3.81976 5.66748 20.0714
2.75777 5.50167 21.3819
3.41656 5.52112 19.2112
3.59838 5.25263 20.1401
3.79345 5.53663 21.7176
3.45469 5.46699 20.8968
3.13045 5.07552 19.8628
3.34638 4.42777 18.071
3.23341 4.81261 19.9086
3.4876 5.43658 22.6203
3.6042 5.88859 21.6308
3.81218 5.56092 19.5546
3.22087 4.85548 20.044
2.9861 5.53788 19.3756
3.00045 4.53799 20.39
3.74735 5.12262 19.7187
3.57777 5.38133 19.6158
3.11284 4.68345 19.2088
2.65729 5.00465 17.8053
3.09672 5.90545 22.6005
3.71935 5.13451 18.2589
3.35894 4.82158 19.1605
3.1234 4.64797 19.2364
3.07943 4.87687 19.2793
3.47299 5.45206 20.2603
3.63113 6.06257 24.8722
3.48733 5.96191 22.8956
3.74598 5.08052 20.4827
3.40451 5.20491 19.0443
2.89387 4.68681 20.4217
3.28072 4.99368 19.4855
3.28526 4.93451 18.0249
3.61197 4.82499 20.4551
3.12375 5.21788 20.2825
2.6969 4.49634 17.8476
2.7772 5.5812 20.2883
3.35443 5.47218 21.8466
3.52833 5.10944 19.679
3.24537 4.67714 17.6971
2.89734 4.98225 18.2516
3.10867 4.74273 20.4366
3.0042 5.32172 21.2092
3.07867 5.22632 18.5474
3.37676 4.71756 19.3693
3.30949 5.23178 19.8299
3.0807 5.1598 20.8115
2.8894 4.52236 20.9969
3.4406 4.99418 16.0962
3.5092 4.99366 18.4993
3.35269 4.82039 21.2173
2.9481 4.59974 18.9945
2.76531 5.33376 20.0677
3.20762 4.67189 19.0182
3.62133 5.99743 20.4606
3.50299 4.96748 20.0854
3.107 4.63031 18.9247
2.79147 5.03917 20.9209
3.08812 5.48908 23.1419
3.30343 5.5135 20.9684
3.0802 4.8979 19.5129
3.39401 5.41221 20.8086
3.07812 5.45246 22.1889
2.98422 5.68214 21.9131
3.0024 5.31687 19.8061
3.53669 5.20015 19.9558
3.62426 5.94046 22.4711
3.49988 4.93293 21.2976
2.92579 5.26803 20.9228
2.67466 5.40851 18.0712
2.85764 5.10136 21.3756
3.15328 4.97901 20.5125
3.32556 4.68186 20.1937
3.01352 4.99838 18.1309
3.10338 5.22182 21.2695
3.05276 4.84657 17.6044
2.99044 5.26729 20.8169
3.29621 4.81283 20.9231
3.40905 4.77901 17.4049
2.69525 5.11879 20.9821
2.65926 5.60814 20.7898
3.3304 4.53464 17.4491
3.40842 5.12322 19.3202
3.15485 5.00636 20.0782
2.53965 4.33467 18.5557
2.50699 4.28452 16.2761
2.91217 4.77374 20.4614
3.46739 4.96293 19.2483
3.06288 4.91892 21.2416
3.02149 4.99103 18.2377
2.76949 4.54828 19.3476
3.11219 5.02444 19.4544
3.07114 4.66367 17.1363
2.96077 5.09513 21.5573
3.61187 5.34642 20.7702
3.00353 4.78492 19.2327
2.61709 4.92324 21.9818
3.04142 5.27638 19.2232
3.67732 5.33656 20.9293
3.64229 5.35065 18.0288
2.75985 4.98301 22.6554
2.77099 5.09714 20.6556
3.13184 5.24623 23.1405
3.44354 5.17041 19.2066
3.17691 5.87951 22.3277
3.26091 4.75218 21.108
3.26047 5.32824 19.6012
2.97349 4.83606 19.9149
3.04495 5.01698 20.272
3.30333 5.25072 20.3646
3.25195 5.28301 21.4989
3.14393 6.08819 25.4376
3.20185 5.6612 20.2691
2.64878 5.02494 21.1381
3.30453 5.39678 22.139
3.6602 5.67181 25.1353
3.80279 5.88157 18.5903
2.70836 6.39426 23.7727
3.24054 4.85567 22.7977
3.53834 4.92536 19.729
3.19642 4.83267 19.8213
3.43907 5.54546 19.383
2.85803 5.16477 20.1155
2.98615 4.56281 19.4625
2.99998 5.36275 18.6648
2.89045 5.23268 20.7912
3.15275 4.84488 22.6472
3.20174 4.88762 20.2582
3.18356 5.38613 19.6595
2.44333 5.50575 20.757
3.19379 5.26704 22.8554
3.65628 4.52646 18.7533
3.14097 5.06183 18.5379
2.49256 5.23731 19.4367
2.68561 4.47052 22.2699
3.21233 5.34228 20.5999
3.80928 4.88593 20.4669
3.44797 4.90833 19.6172
3.49373 5.43967 20.6569
2.82021 4.66045 19.993
2.7807 5.74237 20.9015
3.01801 4.63997 18.8204
2.76732 4.66758 19.0911
3.13235 4.86116 19.7915
3.05421 5.01299 20.0017
2.90037 4.62431 18.6219
2.4944 4.63452 18.7099
3.28345 4.65814 19.6049
3.64293 4.42176 18.9732
3.07672 5.10566 20.4481
2.97625 5.23889 18.8384
2.90649 5.05941 20.0779
3.28789 5.22175 20.8487
3.42933 5.3352 18.7064
2.68297 4.98078 22.4017
3.26875 5.35939 18.4162
2.79247 4.75391 21.2604
3.05404 5.37007 21.304
3.13387 5.5966 21.4441
3.25108 5.58891 21.8304
3.22204 5.51303 22.518
3.03031 5.35857 21.1487
2.744 5.27086 22.4376
3.41544 4.88907 20.0917
3.73 6.08403 21.6623
3.38319 4.99606 19.6881
2.93026 5.11885 20.6887
2.87055 4.64834 22.0806
3.10431 6.45049 23.6011
3.34908 4.96767 17.6859
3.17534 0 0