# pn-170911/RbIIA-26-KOKB-1280-1959.psd
# Power spectrum* (dif=0,1,2) (really just |FT|^2)
# NOTE: only the first half! (symmetric)
# weeks: 1280-1959
# 7 clock-days, 0 excluded
# PSD: 1441
3710.34 0.133367 0.00899396
175324 1.16434 0.00498075
864778 18.4288 0.00594389
69352.3 4.8956 0.00486758
50283.3 4.44265 0.00533927
33637.1 3.88269 0.00612886
38842.5 4.42403 0.00575115
20114.6 4.04492 0.006158
15606.9 3.19649 0.0051283
13545.2 4.37186 0.00626014
8216.21 2.68369 0.00857351
7218.26 3.96718 0.0032415
6695.82 3.06333 0.00603935
2831.14 2.69321 0.00584608
4234.41 3.09159 0.00752976
4413.62 4.14935 0.00395639
2649.02 2.60611 0.00922891
3566.43 3.69703 0.00667636
2127.28 3.14473 0.0107393
3113.11 6.25136 0.01291
3052.99 4.15168 0.0102804
2576.08 5.17706 0.0110371
1531.03 2.53715 0.0100355
2544.33 6.24859 0.0140871
1238.09 3.41735 0.0140013
1133.82 2.12097 0.012908
2250.21 7.79744 0.0181889
1782.81 5.59943 0.0313361
1269.06 4.49346 0.0167076
2048.73 6.34545 0.0339753
564.585 2.09794 0.015634
833.852 4.07623 0.0210431
626.359 2.77972 0.0209149
992.121 3.39395 0.0141842
644.554 2.88075 0.0171184
715.064 3.4832 0.0296913
513.133 2.71732 0.0266853
388.429 1.49887 0.0182448
821.047 4.49033 0.0281037
451.051 3.19676 0.0236223
389.119 2.68585 0.0360205
762.255 5.20287 0.0508497
518.772 4.79608 0.0442794
298.315 2.17377 0.019468
293.729 2.65174 0.0338105
733.69 5.41341 0.0465825
403.71 3.53957 0.0490326
547.028 4.64079 0.0451172
973.274 7.70642 0.0962032
567.985 5.40624 0.0698173
278.982 3.19066 0.0429636
192.452 2.84866 0.0316646
619.674 5.85373 0.0808734
159.029 1.74722 0.0303658
217.01 2.51716 0.0544544
433.594 6.25949 0.0966674
237.833 4.08469 0.0676156
197.763 3.04907 0.0436691
230.616 3.68936 0.078186
548.147 7.80968 0.138241
320.425 5.30844 0.0963395
112.487 1.27161 0.0359928
157.899 2.0474 0.0395572
153.809 2.59508 0.0561585
274.033 5.19371 0.0858293
216.154 4.36112 0.0955769
73.6192 1.48924 0.0294233
197.496 2.75982 0.0719621
308.055 6.50878 0.123217
268.313 4.59203 0.118505
241.562 4.42121 0.115706
109.227 2.57332 0.057663
93.196 2.66902 0.0492962
133.547 2.13826 0.0634942
155.844 4.66944 0.115635
117.904 2.78165 0.102362
91.0432 3.31884 0.109439
168.547 3.5133 0.10245
309.205 8.56166 0.277246
208.845 5.3668 0.168109
137.681 3.16564 0.104094
174.085 4.96214 0.17493
227.016 6.30135 0.173949
140.616 4.59665 0.148846
138.868 3.6937 0.110939
133.608 4.88732 0.186467
104.879 5.09946 0.182614
114.816 3.88632 0.144049
151.127 5.18361 0.202997
70.9922 2.9747 0.111054
113.292 2.96004 0.118973
141.91 5.19565 0.247069
169.528 6.73996 0.244837
166.368 5.42351 0.214361
68.6117 1.53044 0.0775807
92.8095 3.25661 0.143886
135.141 4.34158 0.163831
88.7627 4.59482 0.240307
56.7577 2.57047 0.11419
44.5073 1.74777 0.0964076
161.56 6.07929 0.307943
101.153 3.42896 0.17758
37.9424 2.23254 0.110527
117.376 4.42414 0.221147
55.3647 3.41214 0.196883
74.401 4.01067 0.222101
75.0606 4.14795 0.212621
86.9956 3.87084 0.190443
61.2259 2.91915 0.17212
72.4964 3.79856 0.20866
67.1727 2.79117 0.157989
72.4152 2.84355 0.181073
120.419 5.60459 0.328883
105.911 6.02916 0.347836
50.7336 2.5063 0.172117
75.4148 3.77798 0.258104
82.9536 3.78673 0.249434
94.657 5.71517 0.374893
63.8727 5.4126 0.396933
65.3765 2.99551 0.239143
82.9152 4.40647 0.292546
75.4706 3.60961 0.225117
103.882 5.10946 0.321408
61.1966 4.51963 0.314002
53.9164 4.19046 0.284411
46.2456 4.18584 0.273993
50.7191 4.0505 0.317072
53.2136 4.04363 0.341076
56.3515 2.99798 0.21982
27.5774 1.5716 0.131503
101.531 6.80784 0.563189
84.6524 5.5228 0.447243
40.9764 3.28036 0.295472
29.2835 4.46881 0.382853
65.0401 3.37725 0.268689
65.4437 6.07425 0.543579
47.0472 4.09943 0.344506
43.7299 2.78349 0.248976
90.8853 5.87509 0.534025
36.5437 2.68245 0.215486
34.4521 3.39928 0.346889
30.4845 1.98396 0.189134
31.5346 3.02851 0.257459
52.577 3.62221 0.392846
60.612 4.69508 0.448013
57.9441 4.13371 0.421748
30.3995 2.5846 0.261656
38.7405 2.97302 0.281871
48.059 3.90794 0.389432
30.8832 3.78116 0.421951
45.8404 3.46492 0.335877
33.0945 3.88289 0.429929
95.6422 10.735 1.22423
53.0987 4.27634 0.484402
29.0519 3.2963 0.406512
41.7136 5.19605 0.550947
26.939 3.05384 0.347563
30.1326 1.98899 0.248897
38.4813 5.08468 0.651494
31.7726 3.14966 0.366208
21.4226 1.96516 0.187104
32.3232 3.44971 0.394472
34.4527 5.45971 0.65666
30.7273 3.48197 0.390722
65.9915 7.91405 1.02136
34.384 2.57487 0.32842
45.4579 4.06134 0.503212
36.5382 4.19278 0.607425
68.9129 7.99394 0.985621
29.0254 3.60759 0.535239
22.7327 4.39206 0.633384
45.1888 5.00897 0.670247
40.0381 4.85316 0.766942
43.3062 4.40696 0.607581
44.7877 6.31078 0.905266
42.8225 6.36117 0.911735
13.5769 2.53806 0.406407
43.8171 5.65943 0.823661
18.8464 1.74333 0.314252
20.2377 1.85813 0.282727
17.0727 2.64961 0.425294
29.5333 4.06013 0.623827
27.2854 3.319 0.535689
53.3902 5.97363 0.832105
9.78816 1.79558 0.296258
24.0857 3.00182 0.492851
24.9351 2.81273 0.420979
40.6545 5.62755 0.967491
31.1473 3.20272 0.482878
27.8227 4.03076 0.657659
12.7927 1.2867 0.222512
57.5495 7.75092 1.32122
17.5543 2.42347 0.413803
19.6869 2.10324 0.341878
25.1667 4.35576 0.857959
28.2751 3.60814 0.653374
23.9797 3.63643 0.638616
24.4257 4.37616 0.706231
16.615 3.36738 0.572939
29.4003 4.72909 0.88095
18.7532 3.09842 0.625868
17.6584 2.30407 0.37019
18.4115 2.24705 0.475203
34.7833 5.96674 1.21998
15.1955 2.03611 0.412382
23.6487 3.56772 0.73251
14.3304 3.0367 0.645132
22.0757 3.44838 0.603256
8.92129 1.72593 0.335045
23.8224 6.09325 1.35508
28.8421 4.52491 0.797631
11.3623 2.17033 0.485634
12.6844 2.61122 0.526432
14.2671 1.66577 0.344144
6.37141 0.977423 0.185908
21.5271 4.1354 0.898385
15.7336 4.33999 1.02096
13.1474 2.0959 0.430752
23.187 4.08004 0.887756
10.6996 2.31404 0.580525
37.7521 6.36391 1.31108
23.4883 4.45496 1.0194
28.3383 4.4494 1.05677
15.6629 2.68068 0.63417
18.2258 3.44013 0.881187
23.9685 4.59507 1.0369
14.174 4.25335 1.10502
23.1563 4.07178 0.937482
20.7957 3.87394 0.932595
11.4469 2.38755 0.654859
22.3893 3.63674 0.85663
28.3604 7.3438 2.02637
14.6882 3.79236 0.945235
12.0325 2.27385 0.525449
15.8445 3.71678 1.18539
16.1584 3.55322 0.898773
29.9237 6.70707 1.72606
6.71383 2.3755 0.772948
18.162 4.66294 0.969902
12.3547 2.63932 0.596976
14.8139 4.02737 1.15275
15.8297 4.23359 1.1023
10.2468 2.76375 0.804135
9.173 2.05522 0.657242
28.8282 7.95101 2.03188
20.3891 6.61936 2.25951
15.7647 3.91549 1.12787
19.7909 3.61347 0.908669
11.8115 3.08992 0.782965
5.56316 2.05452 0.677347
15.3317 2.57511 0.695376
15.7901 4.74834 1.36492
18.8426 4.84459 1.42109
18.7214 4.53539 1.40167
16.0162 5.71772 1.53651
17.8183 4.40033 1.40441
11.2158 3.85302 1.33253
11.9032 3.22598 1.34874
29.6457 7.22939 2.06724
15.9623 3.66206 1.12283
21.9448 6.35548 1.90971
6.65084 2.95212 1.22817
33.2215 8.78566 2.3402
8.44793 2.47938 0.842062
12.8855 3.80863 1.26444
9.39889 2.89892 0.863675
18.9095 6.56032 2.22973
15.4588 3.72845 1.38411
17.5596 5.72566 1.9998
9.60695 2.71879 0.840225
14.6102 4.39024 1.34739
4.21243 2.25504 0.907144
18.8077 4.35955 1.22102
14.9975 4.2407 1.49661
16.0255 3.33532 1.20047
8.05857 1.72052 0.677514
13.2272 4.44253 1.56027
8.24345 2.22618 0.689309
15.7425 4.86591 1.83698
15.2907 7.28336 2.42193
7.98449 2.24463 0.812693
8.40545 2.86213 0.92109
13.5961 4.74993 1.84304
19.6172 5.94274 2.20372
7.07088 3.39557 1.52988
7.0659 3.84051 1.63467
14.1801 4.43375 1.70061
27.0974 6.75853 2.16823
14.2255 4.5468 2.03795
21.4043 7.64269 2.64613
15.2857 5.54119 2.26592
8.66589 3.20244 1.30749
13.6588 4.20673 1.43141
15.1403 4.59732 1.57853
10.8611 3.96419 1.83454
9.7451 3.7575 1.24007
11.2413 3.81059 1.64415
7.18096 2.65809 1.03472
8.34766 3.35926 1.35721
16.2071 5.51434 2.1989
9.61555 4.03275 1.70464
7.08599 3.48051 1.82438
15.8171 3.70352 1.25288
7.22606 2.09896 1.07075
16.8997 6.06877 2.56066
9.45621 2.18017 0.653693
10.1149 3.70159 1.80663
15.5688 5.94469 2.54413
6.06454 1.90527 1.07966
10.2666 5.38253 1.96805
8.88463 2.4326 1.17561
5.47268 3.54878 1.63437
9.38951 3.48123 1.39435
5.26922 2.22651 0.897287
23.7036 9.92934 4.42473
9.1558 4.09034 1.75278
6.29657 3.05829 1.48602
12.4548 5.31428 2.45685
9.25136 2.65549 1.01363
11.488 4.59963 2.01812
8.7034 3.21194 1.80437
5.26043 1.92106 0.763238
8.91621 3.05247 1.35595
8.75919 3.62202 1.81258
6.97186 2.53947 1.26637
11.5932 6.31382 2.76559
6.20779 2.54462 1.3961
10.1474 4.40591 2.01505
10.3538 3.75283 2.12419
9.48684 4.37439 2.25604
6.01609 2.34342 1.14533
8.19934 2.69429 1.44771
6.33821 3.46735 1.72007
8.45185 4.04157 1.73542
7.11714 2.35078 1.02911
13.8181 6.76436 3.56879
11.5504 6.73011 3.33989
2.08379 0.636872 0.328995
6.98028 3.06791 1.66663
7.66552 3.37804 1.48441
12.5158 5.94118 3.25009
6.07402 3.99632 2.06343
5.52901 3.89459 2.81974
7.79642 3.33552 1.3411
10.7269 5.7727 2.7838
6.78938 3.01093 1.62333
9.13884 4.95811 2.37244
5.54469 5.10954 3.37886
17.7794 10.1973 5.4458
10.4315 3.84749 1.81343
8.00444 3.65417 2.38128
8.54749 4.28581 1.79213
5.79068 3.58847 2.01854
6.52171 3.49228 2.15027
10.9002 5.17747 3.1084
6.03216 2.595 1.47402
12.0179 7.36992 3.80729
9.74299 4.03738 2.06536
2.57273 2.34752 1.78623
11.4338 4.9971 2.61302
7.03343 3.56095 2.08281
4.19603 2.70718 1.71441
6.5902 6.1375 3.75912
4.95539 2.19027 1.55814
5.66042 4.01578 3.05743
10.7435 5.22538 3.06229
13.0103 5.08219 2.41778
8.41385 4.38538 2.8288
4.06896 1.33509 1.08785
7.54132 4.34409 2.6586
3.61476 1.66501 1.44329
9.40353 3.8137 2.23178
6.96634 3.81405 2.61082
6.72068 3.80728 2.19015
9.41564 5.2913 3.41729
12.4616 5.57966 3.26188
9.44805 5.91433 3.23794
6.44286 4.85044 3.3642
6.3973 3.84382 2.97903
6.73299 2.66487 1.47884
10.7454 6.02314 3.8747
11.1312 5.14873 3.00826
6.97602 4.02041 3.14152
9.31938 4.05768 2.69721
10.5848 6.12883 3.57372
7.02785 3.44175 2.29956
9.12281 6.77383 5.45151
15.1394 7.75995 4.88769
4.00423 3.3873 2.35321
6.16699 3.56092 2.22313
6.7416 4.26316 2.9818
8.53467 5.02558 3.76339
5.39377 1.9534 1.33743
9.19363 5.43064 3.33859
12.1508 8.72506 6.41943
2.37994 1.037 1.03207
8.81648 4.82984 2.74066
2.18651 1.34934 1.21011
9.95093 6.02461 4.13515
7.43773 3.65145 2.33919
5.78451 5.64508 4.90898
4.38314 2.24161 0.999803
4.08502 3.43516 2.70992
11.6387 8.10879 5.27856
5.15962 3.81567 3.07479
5.24196 3.0513 1.98408
6.44984 4.20994 3.56821
5.13096 2.78676 2.39415
6.46939 5.28134 3.93921
7.49439 5.01017 3.36703
3.48283 4.81593 4.17543
9.76702 7.18334 5.11994
9.36667 6.86429 5.52427
11.0188 5.84854 4.14522
3.19331 2.52864 2.1704
4.9778 2.19199 1.93519
6.47048 3.90009 2.4368
6.20037 3.95417 2.55819
4.97282 4.92993 3.70623
3.42208 2.96046 2.77333
3.67254 3.27792 2.93939
5.69657 3.87206 3.91557
13.3022 8.95311 6.76222
10.9424 5.49145 3.79395
5.45298 3.70734 2.47559
7.02895 6.32047 4.9171
6.51693 4.8718 4.44
7.10696 5.51025 5.58395
6.46348 4.46097 3.96002
10.0632 6.21315 3.77941
7.28758 5.28218 3.8088
4.0823 4.43743 4.64841
9.14142 6.60832 4.42857
7.55673 7.44682 5.10377
4.87168 4.35461 3.8659
8.31971 8.42048 7.76317
8.73196 6.56315 3.97126
4.61309 4.46078 4.4477
4.07589 4.70632 4.26642
4.59115 3.998 3.85223
3.99477 3.29084 3.17112
6.02888 5.05503 5.09763
12.6285 7.41713 6.06123
3.98283 1.99349 2.13661
3.83137 3.31229 2.44647
5.89407 3.80787 3.52462
9.61982 6.9593 6.04802
5.35621 2.95757 2.03024
5.57605 4.32736 3.49419
3.95931 4.20842 2.92477
2.70984 3.65537 3.63345
7.33053 6.6903 5.48909
4.28714 3.23268 3.26697
5.89324 4.59306 3.84559
2.46717 3.08069 3.92
4.57782 4.98398 5.02078
7.27429 5.47667 4.7821
7.25042 5.84711 4.45574
4.4236 5.49612 5.55238
5.87746 7.03448 8.36944
8.09091 3.54654 2.26384
4.7278 4.28935 4.677
9.80055 5.81858 3.73177
2.93683 1.88872 2.2986
6.96513 5.88034 4.9047
4.04295 4.13428 3.69657
4.96152 2.77053 2.56037
2.31369 1.36491 1.14406
3.15396 2.07488 1.83085
3.67643 2.36121 2.07544
3.72133 3.9703 4.12091
5.73419 3.76873 3.7384
3.86208 5.17928 4.79629
3.35801 1.76157 1.70779
4.49707 4.62063 4.00371
2.93892 3.93408 3.9555
5.05288 4.52289 4.18619
4.9106 5.19062 5.88196
3.43271 2.51286 1.89481
4.34136 5.03235 5.09289
5.19677 6.13208 7.48965
6.42234 5.49042 5.12698
4.54248 2.68865 2.36283
3.88892 4.52764 4.85606
4.69472 2.43837 1.8893
5.47087 4.64862 4.51296
7.39859 7.82317 7.50172
5.22994 6.2403 8.15663
6.34213 5.19163 4.38382
3.02906 2.56585 3.45198
4.18669 2.38897 3.10167
4.12557 2.96032 2.28486
3.94575 4.25476 4.22581
4.37923 6.54409 6.80226
2.50014 2.91498 3.70322
4.66611 3.27283 3.37868
5.10852 4.51346 5.16565
5.74441 4.65841 3.76907
4.478 5.52296 6.57404
4.76813 6.14386 7.52877
7.55532 6.60058 6.25077
2.91442 2.48067 2.67145
3.43212 3.69724 4.91979
8.56612 6.55156 6.65765
4.69358 3.49846 3.54942
2.29566 2.49003 3.45294
2.58144 1.79431 2.24234
2.30168 3.86981 5.04285
5.17852 3.16629 3.63261
5.60368 4.20796 3.46369
4.43048 4.2085 4.38667
4.43372 5.2715 6.74354
3.61844 3.23301 3.91864
7.29762 6.5899 6.01556
5.65468 4.65275 4.9753
3.09363 3.42309 4.42835
3.81424 3.28899 3.38237
5.22334 5.87267 7.54473
2.2071 3.12849 4.39788
5.52061 8.01392 9.58249
3.10219 2.5406 3.48919
4.89446 4.63321 3.97919
4.47751 4.66345 4.09657
3.83155 5.114 7.68249
6.04798 5.62651 6.05971
4.56321 3.7641 4.08542
8.38849 7.84877 9.10964
4.67038 5.14283 7.04471
3.69639 5.09199 5.70677
4.11748 5.50153 6.58113
4.41351 6.74481 9.70461
5.62093 4.59971 5.23501
3.53951 2.02324 2.22872
2.87559 2.9076 2.84333
6.34084 8.67698 10.9876
4.30092 3.2432 3.54217
4.55628 5.38258 6.9532
5.73541 9.17552 10.9143
4.51644 5.02764 5.40719
2.56689 2.41798 3.83017
3.97396 4.54428 5.82919
5.52506 5.29698 6.31665
3.86251 2.97245 2.61387
4.82704 4.57991 5.40018
5.31428 5.66775 6.64001
3.17392 3.02876 3.91315
3.51614 4.17151 7.02527
6.82628 7.27729 8.33608
3.26362 2.95721 3.38238
1.06871 2.41584 4.18322
7.16021 8.94063 9.57808
2.33543 3.91472 7.84451
7.04244 6.98566 8.90866
3.71283 3.82204 3.32652
3.10056 4.25925 5.00778
3.74507 4.33519 5.29423
3.10036 4.64024 7.19781
5.85991 4.565 6.0031
3.91955 3.6553 3.3317
1.89045 4.04199 6.49864
5.05185 5.41546 6.45113
2.1699 3.14345 4.86787
4.02956 3.94762 4.26434
4.32056 4.17696 5.28738
3.01803 5.92253 11.9282
5.44895 4.04562 3.62921
4.39251 6.88002 8.21763
4.27866 4.57856 5.16029
3.65111 3.77265 5.34132
2.20884 2.43975 5.4132
3.92271 5.21124 5.65633
5.02263 6.26177 7.7379
1.65494 3.27623 5.89094
2.69493 3.4975 5.49678
3.32965 4.83611 6.81812
4.45454 3.64609 4.52992
2.25322 2.09858 3.24511
4.98399 5.31875 5.73841
3.41131 3.76603 4.78062
2.7644 4.6025 9.78096
4.4276 4.71072 5.60088
4.90626 5.15435 6.97702
4.45742 5.3696 6.99626
3.29101 3.69153 5.24977
3.54585 6.18128 11.0297
2.73415 2.99402 4.27663
2.31901 4.00524 7.52615
7.02014 7.15845 8.75166
4.17749 6.15846 8.24929
3.89539 5.17493 7.15626
4.07313 5.18943 5.88585
4.64151 5.22902 6.71655
1.85204 1.93974 3.57904
4.3059 5.61374 7.6701
2.23618 3.26572 4.9254
2.61611 2.2024 2.68063
1.68306 3.24437 4.68962
3.78103 5.0242 6.67506
5.58058 7.91633 13.7936
4.73285 5.74429 8.3238
3.21875 6.38161 11.6133
5.42416 6.24222 5.9668
1.99329 4.71258 8.8522
5.17245 5.13718 6.01327
2.52533 3.27294 4.83304
2.78672 7.25677 14.2008
5.26961 4.91245 7.41476
4.75915 6.5342 7.86643
3.19303 3.20246 4.26947
4.03267 6.38824 10.5243
3.83804 2.6965 3.85168
5.25804 7.87724 9.75079
3.57075 4.95889 8.0098
3.4071 4.74031 7.96759
1.65518 1.11603 2.54318
3.03516 3.23562 4.82725
2.38916 3.20886 3.99763
1.99333 3.05265 5.86586
7.8839 10.8515 13.0613
2.62694 6.4905 11.6383
2.30377 3.20767 7.56719
4.20031 4.45317 7.17052
3.92142 4.79939 5.78671
3.41738 4.24146 6.94548
2.60241 4.21567 7.32536
3.96556 6.28962 10.7254
5.61975 8.72957 10.5275
1.56745 2.58705 4.9271
1.64895 2.19818 4.35608
2.08009 3.19259 5.47062
2.48512 3.81445 7.11399
4.21756 3.24577 3.14345
3.01967 4.12291 7.34027
3.08976 4.10714 8.78599
2.15702 4.06151 5.05914
1.96391 3.3543 5.41659
2.08278 4.05934 6.64577
2.34116 3.63045 7.94263
4.90743 6.62324 11.905
3.65437 4.64442 6.26984
3.57812 5.22214 6.63972
2.42012 1.92456 2.35733
3.44934 5.89466 10.9638
4.51872 8.16721 12.6808
2.89594 4.50688 7.77268
1.86802 2.28845 5.40028
4.84015 6.67856 9.54288
1.64533 2.87999 6.23676
3.3293 4.38003 6.80869
1.59695 3.23192 5.56598
3.57084 5.85895 12.2556
4.06903 4.68744 5.66036
3.61371 6.14934 11.5997
2.49206 4.91121 10.5449
4.39131 5.61731 8.6167
2.61562 4.04568 7.11245
2.30818 2.77412 4.34017
2.4995 4.74474 6.85318
2.27985 3.59696 7.24939
3.07479 4.4187 7.60055
2.96172 4.87229 10.043
3.6134 4.77693 8.5768
3.7722 5.69525 8.84544
3.05593 3.93268 4.65979
1.61149 2.53405 7.13484
2.84613 5.13634 5.58519
3.14443 8.00879 14.9657
4.88787 7.00487 10.0039
1.14093 3.52381 9.2327
3.99658 4.74332 8.7188
6.69137 10.8551 16.093
3.24972 7.79975 13.8456
2.87035 4.42883 9.6474
3.06646 2.69527 3.19988
1.9873 5.43068 11.9238
2.98244 3.06186 6.51907
3.27175 4.46399 6.02186
2.68614 5.19187 10.1564
1.40647 3.31832 9.99611
5.34227 6.43872 7.9221
2.21422 2.81752 6.53827
3.94266 6.64795 11.0699
2.58755 4.20319 7.12573
3.2927 7.03001 12.85
3.57281 5.41849 13.4591
4.27249 5.30336 6.05495
2.25266 5.67024 9.00604
2.94102 4.80121 10.3349
3.61738 5.91602 12.4376
4.2341 3.70157 5.52776
3.62162 6.37872 10.2472
3.1099 8.31153 14.6479
2.38531 2.87303 5.58621
2.07358 3.7468 5.73513
2.53438 5.16282 11.8923
2.48125 3.69024 8.83689
5.50215 9.68998 17.668
2.96596 3.88145 6.65766
1.76085 4.63485 8.71154
2.15318 2.19763 5.32261
2.3892 3.82918 9.02473
3.29732 4.64861 8.5388
4.08315 5.58146 9.53932
2.68709 4.21148 7.48167
3.24274 5.8155 14.0081
4.41626 6.15092 8.43307
2.4137 6.26912 10.5195
2.72118 3.96287 7.8184
1.89527 2.54022 6.65134
1.98093 3.03808 5.25882
2.31543 6.78543 14.0822
3.45595 4.64282 9.31733
3.26229 3.94851 4.96032
1.65313 5.10626 15.401
4.3617 8.05939 16.8114
3.77051 5.77318 8.61724
1.87604 6.68598 14.2746
1.80788 2.57655 10.2499
4.23491 4.27647 4.47499
2.03569 5.84802 9.95016
2.91853 5.84857 18.2882
4.15007 4.24366 5.23086
2.70598 7.32101 14.6061
3.5587 7.18544 13.0138
2.97629 4.47573 10.9898
4.06912 7.06509 10.8055
1.70191 2.31013 5.74046
3.50131 6.1114 9.51297
2.32973 4.74079 9.4971
1.66866 2.85338 9.72562
4.033 8.64707 13.8327
2.81069 4.25695 6.87147
1.3766 3.95372 8.26115
3.38626 6.72375 13.789
2.32171 3.2405 5.99866
1.41963 2.81756 6.0173
2.63167 7.64084 15.983
1.77231 2.50774 5.83837
1.29963 4.4128 11.5289
2.51928 3.95726 9.91673
3.43903 5.06375 6.97559
0.670765 1.66375 4.2359
0.757279 1.87075 4.27041
1.39797 2.82351 4.91794
1.66026 5.16599 12.1355
1.75794 2.61893 8.33207
3.35782 5.68526 10.0401
2.76533 6.34759 9.83734
2.01392 6.26753 19.7636
4.94722 6.96604 12.3284
4.10666 8.96228 16.0266
1.75676 4.45403 12.5031
2.81823 2.44674 3.1215
2.00793 5.01337 9.11748
1.18602 2.61657 8.62144
2.70602 2.84717 5.33252
1.52636 2.81139 10.499
4.88256 7.75281 12.7629
2.4376 5.10914 13.8961
4.24064 9.07856 14.2688
2.57089 5.57717 12.9846
1.27082 3.86916 12.2831
2.89046 4.00409 8.50904
3.13352 8.04293 17.8144
2.69193 3.68809 9.089
3.19533 5.811 12.266
3.05521 5.22 7.65697
1.53273 2.20823 5.08572
1.80536 5.31818 11.1077
1.81543 3.99007 12.1016
2.46123 5.00323 18.3171
5.24181 7.32099 9.46563
1.26213 2.73878 7.22732
1.69638 4.62953 8.84035
1.63948 3.14673 7.62494
1.02474 2.83866 6.60673
1.28672 1.87718 6.66175
3.23275 6.12289 14.9572
3.62987 7.03173 9.59152
0.877242 2.36197 6.57434
1.54834 2.65054 7.9934
2.70409 4.52245 11.5957
2.64545 5.16035 8.10426
2.90313 8.26274 20.974
5.1387 8.40194 12.2418
1.01568 3.02628 12.5409
2.25807 4.02431 8.2275
1.66728 3.49226 8.48833
4.71141 11.2685 28.1527
5.07222 10.9833 26.9526
3.87461 9.12766 16.1973
1.09314 2.57349 11.6328
3.51773 5.01334 7.86867
0.920005 3.5543 12.461
3.44404 8.67026 13.8625
1.10427 2.45874 10.3418
3.10332 4.92338 10.7516
2.9093 4.43043 10.7267
2.70577 6.89148 14.0928
2.37538 4.10248 8.38492
1.39542 7.16799 17.6106
3.29793 6.73008 15.4517
3.02221 6.92609 19.5486
3.56678 6.28871 16.554
3.55294 5.40685 10.5187
3.32068 4.86606 5.77314
2.01301 4.52464 9.79369
2.24096 4.47416 8.51499
1.22538 3.04636 9.23322
1.32612 3.12315 7.48744
2.47154 4.41215 8.16094
1.34033 2.75552 4.58981
2.96015 9.63506 19.2167
1.27971 3.5277 14.3648
2.57012 6.50393 12.5026
1.32425 4.55506 11.2896
1.2065 3.08696 10.0921
2.17406 6.09261 17.7411
3.29355 5.16141 15.7787
4.36343 11.1198 23.4573
3.24046 6.50083 16.144
1.93326 5.69308 27.5842
6.08037 9.73727 9.24115
0.69057 2.7068 12.4217
4.7689 9.60769 16.6072
1.28307 5.2396 20.2891
3.45594 5.24229 8.45521
1.03735 2.72149 9.34232
3.91379 9.76704 22.618
2.8432 6.74924 15.672
2.57415 5.83765 17.7674
2.9883 8.39418 19.9845
3.15421 4.02513 10.8818
3.69768 7.37603 12.1245
1.78067 5.17079 18.8116
3.83564 7.25316 12.3325
1.19221 3.34768 6.35727
1.18227 4.14015 12.9351
2.30145 3.91594 7.61886
0.768084 2.57634 4.51872
1.92066 9.14668 28.716
3.61639 4.71442 14.0157
3.83926 8.08326 13.9502
1.35029 4.78449 16.4599
3.84893 8.6759 18.0453
1.40193 3.17591 15.7371
5.90832 11.4306 20.1384
2.35515 7.83541 27.5511
2.57068 4.05747 13.3825
4.09349 8.65053 17.313
2.2197 6.74984 18.8843
2.62116 4.42762 8.46752
1.60944 5.26092 18.2989
2.20741 3.75228 7.08392
3.37411 10.5813 27.8312
2.1017 4.88406 9.86297
2.1748 8.92021 24.2194
2.33607 5.00952 16.1255
2.41411 4.20334 12.4191
2.51519 5.78488 21.9067
4.37782 10.6135 23.9264
2.04895 4.80445 14.3039
2.33496 3.67744 9.51759
2.23298 7.88047 26.6439
4.07262 7.22473 16.1777
2.07139 4.85418 11.7492
2.05721 7.16971 20.2139
2.91966 7.59786 15.6204
1.98424 5.72402 15.6062
1.77881 3.20235 9.35547
2.16487 6.83765 24.1367
2.81544 3.00716 7.50757
3.26006 8.40428 18.559
2.53817 8.0217 33.9965
5.13686 7.94672 11.6137
3.41532 12.8361 31.3683
4.31016 7.17711 15.4848
1.99016 6.89145 20.7908
3.4722 6.74502 15.9903
2.58926 6.72978 21.6531
2.57063 7.37037 17.4646
1.33027 3.44131 11.3548
2.44538 7.3293 20.6087
2.36855 2.79076 7.36321
1.53388 2.52015 9.98843
2.80141 7.86237 14.3733
2.02557 4.54183 12.138
1.556 2.62082 8.73188
2.13041 6.32765 14.6773
2.16542 5.07599 10.1851
1.02469 4.5705 15.7562
2.65666 5.70811 8.93513
0.588857 3.49776 10.7008
0.64894 3.07573 20.3279
4.08717 7.50932 12.9798
2.97356 16.2077 42.9246
3.66712 3.76199 10.1804
2.63291 5.177 9.81611
0.879398 1.81886 6.72925
1.61874 2.37255 10.6766
2.52481 6.98004 12.1238
1.94413 5.4591 14.4746
2.17701 7.56412 18.1216
1.06507 3.79266 11.6257
1.1599 1.61967 9.7416
2.09531 9.01588 26.2078
2.77705 6.68678 21.6253
2.52567 3.54816 8.96179
2.55056 5.00068 13.3528
1.24837 3.56926 11.949
3.42876 7.26008 15.1468
1.70592 3.04776 9.1172
1.03831 3.12595 12.4916
1.86403 4.91253 15.172
1.77774 4.4843 20.9537
2.67771 4.22954 2.52511
1.67333 11.5023 31.0506
2.41859 6.79576 24.6306
2.9538 4.90832 9.01495
1.03958 5.68607 18.0429
2.46549 6.92789 19.9047
1.78984 2.81576 17.9856
3.62623 6.91981 13.0234
2.12528 6.26382 22.5306
4.07219 9.95642 37.352
5.35604 11.9894 17.407
0.640409 1.74177 7.51272
1.53006 5.18116 14.3566
1.39158 3.62669 14.0408
2.36739 6.26009 19.2788
2.35727 7.14384 20.9743
2.5142 3.98158 7.81626
0.66362 2.06011 13.2218
2.57664 6.95789 19.3356
3.07213 6.20462 20.9484
2.97614 6.55904 8.23584
1.16978 6.67222 26.0731
3.62137 4.40053 6.88763
2.57485 9.85452 20.6302
1.93331 5.21433 16.0927
1.97956 4.6722 12.5347
1.89123 4.22722 10.0899
1.82852 4.11224 11.1176
1.63835 4.49547 12.9896
2.5797 6.29824 14.9315
1.52963 6.18961 23.0961
2.04814 5.43618 9.1071
1.17517 4.63255 14.8456
1.43205 3.25197 16.6584
2.17554 9.41556 27.8702
2.34758 4.36881 14.1989
2.64161 7.89404 21.5907
1.78666 2.06512 6.17978
1.33458 3.36667 10.6281
1.20973 5.81806 19.5066
2.35883 4.36637 8.10078
0.600036 3.09959 12.8666
1.58152 5.01937 13.0081
1.56798 4.77189 17.1211
2.08004 5.42913 24.7105
3.56227 9.66264 25.7006
2.28404 3.80947 14.1197
2.49277 9.20684 27.0622
2.72986 5.96517 20.16
3.69531 9.25426 19.5578
1.2546 2.31522 5.69413
0.68144 2.96388 14.518
2.49215 4.90244 12.9062
1.82935 4.16051 13.9265
1.90894 7.16108 17.1151
1.4728 4.34566 13.269
2.02153 4.69848 12.9686
1.97142 5.80675 21.2032
2.63141 5.49285 10.9395
1.00128 3.85855 26.5639
4.22975 6.79824 9.71768
1.94852 6.38775 13.3434
0.607142 1.65536 3.52619
0.672036 2.31744 6.49702
1.02845 6.24839 27.8811
2.45095 3.25327 8.9346
0.85052 2.00725 9.74128
1.51108 4.52798 14.8293
1.62891 3.61609 12.9495
2.38334 8.7451 28.7902
3.13393 3.8349 8.67082
2.58162 9.07348 19.5792
1.17801 4.5376 11.3132
1.19046 3.4483 13.0707
0.918043 3.98096 14.6678
1.89085 5.54032 19.3008
1.76473 4.16132 18.8445
1.59256 6.66572 42.0057
5.78891 10.1586 14.0341
2.09423 5.5729 10.3299
0.645937 3.32143 11.3288
1.11105 4.21601 14.3944
1.93744 6.7873 20.0778
2.61852 3.27436 6.04246
2.01887 9.60297 24.4841
2.05237 4.05495 14.1096
1.81761 8.00845 28.7751
2.722 4.49332 15.8186
2.35904 5.26726 15.0883
1.95383 5.46741 12.9265
0.93043 4.2291 15.2869
1.29678 2.86731 12.0611
2.16778 7.623 20.7212
1.8831 3.92994 11.2995
1.37702 3.67942 13.3866
1.79278 5.56529 13.1634
1.83655 8.36906 26.9373
1.41634 3.80308 14.5938
1.55172 3.93676 12.9812
1.30874 5.40197 17.1907
2.13561 5.91445 21.6445
2.20911 8.55204 29.3909
2.81577 4.69896 17.6451
2.72088 7.68525 9.88393
1.0249 8.04878 31.6337
1.77705 3.16771 8.89483
1.03748 2.11406 6.68096
1.17754 2.28515 6.99111
1.14428 6.79215 35.6289
3.32602 8.12727 14.9154
1.39699 4.35309 14.3444
1.56775 3.83652 9.81082
1.10639 5.50724 22.5443
1.92792 4.98838 27.9823
3.40588 6.64673 7.7078
0.741175 2.85541 17.2766
1.87635 7.37002 24.6989
2.48594 10.8751 20.5224
1.29262 5.65956 18.8257
1.60148 5.84307 26.6772
2.26946 3.40314 11.6031
1.97704 9.64611 34.4956
2.72544 4.06495 16.4663
1.81209 6.19006 19.8172
1.4681 3.43415 24.4138
3.99262 8.64788 22.1181
1.29924 2.7993 7.11938
1.15366 5.15559 13.775
0.880416 4.94955 29.4621
3.54987 5.96924 8.76202
0.840966 3.11824 22.205
2.47965 6.43342 11.1892
2.16726 9.39554 25.8925
1.74986 5.91237 26.6625
2.10888 5.46437 20.5884
2.75872 7.25749 21.0686
2.21504 4.75603 19.4693
2.69369 5.75286 10.0195
1.10642 3.86128 12.9862
1.2569 7.87449 26.8296
2.44297 3.82242 19.6685
3.38364 9.45727 19.3593
1.38445 3.42015 12.3204
1.43596 5.59802 16.8932
1.89634 9.54538 32.0482
1.82335 4.23753 17.9986
1.51238 4.33624 16.8313
1.75926 4.04393 24.8014
3.70655 10.7421 20.481
1.46461 3.93332 9.08156
0.766944 4.34226 16.7904
1.25382 5.1473 19.4429
1.98247 4.26858 21.7381
1.93249 8.86285 22.6579
2.52455 5.60084 17.2172
1.33686 5.14716 13.5678
1.21513 4.76449 21.2247
1.79121 4.49917 17.3907
1.10978 3.87702 17.4778
1.61351 4.18693 15.2624
1.20631 4.16345 7.61341
0.931023 5.84931 22.6347
2.4958 6.29369 18.7653
1.63372 7.21433 18.951
1.33614 8.24426 31.7184
2.50645 4.61834 21.4155
1.68253 3.35724 8.19143
1.06217 6.29272 17.5224
1.78058 4.84947 11.8816
1.15683 6.52978 15.2509
0.953061 5.05489 25.0582
2.18179 5.02361 27.905
3.47808 7.85497 19.0898
1.59558 3.92742 21.9732
2.43533 5.05691 12.4377
1.95589 7.14851 19.9314
1.56548 6.59274 17.6752
1.91068 5.33508 24.5012
1.91994 5.30623 21.0786
1.66163 5.99631 28.1329
2.9124 8.18672 21.2645
1.81341 7.87094 20.414
1.89247 6.44686 27.1769
2.21833 4.27075 12.6394
1.81274 6.97698 16.441
1.39333 5.43435 26.8554
1.61938 6.15308 22.0565
2.20307 3.7802 16.2991
1.77266 6.45206 30.13
2.71865 5.73476 9.03949
0.806728 4.62761 34.3055
3.66365 5.19739 9.62021
2.23262 9.01626 20.4239
2.21597 11.965 36.9814
2.01598 8.94562 34.7796
2.0667 6.30587 25.2516
2.07357 8.42425 30.1017
2.5175 5.51974 16.3354
1.02875 5.35334 16.6202
1.62182 4.9302 26.1857
2.19015 6.57149 13.1086
1.45917 5.73482 22.1197
1.17489 2.09022 12.7289
1.39561 4.63618 14.1848
0.883985 2.54475 16.9104
2.80765 15.488 54.1122
2.49561 2.401 16.9954
1.89915 4.70979 12.4365
1.2287 7.6398 20.7173
1.01496 7.99252 36.528
2.29717 9.51008 32.9345
2.72259 3.48342 15.6577
1.29165 3.9587 18.2976
2.5728 10.9469 15.9721
0.672263 6.06692 25.5131
1.90144 4.25367 25.6494
1.62323 6.34531 27.9232
2.90359 7.08936 24.848
2.0486 7.82558 30.1969
2.09852 9.55247 23.3958
1.61007 2.54685 15.5155
1.646 7.24171 23.2144
1.41389 4.78301 10.1305
0.975457 5.19218 18.8238
1.40137 3.41124 18.3854
1.47745 4.16448 16.4925
1.78871 8.62597 32.8754
2.17216 5.74775 33.1567
3.87386 7.07541 15.0063
1.9529 4.87478 18.0737
1.8612 5.82547 13.2079
0.847247 5.57979 26.9962
2.79158 8.04924 25.8234
2.02363 4.57933 10.9745
1.86785 12.7135 38.5711
1.84506 5.70051 24.9199
1.51766 3.28406 32.1628
2.74525 9.16731 29.6398
2.51405 6.62389 13.0441
1.16836 4.76875 20.5425
1.33875 6.34451 19.5959
1.58251 5.48593 16.9193
1.41962 4.5873 21.8391
1.94915 5.77453 28.677
3.13114 11.9218 30.3563
1.92496 5.66978 22.8194
2.0103 3.97455 18.3079
1.66293 6.66432 17.3979
1.76175 7.85273 31.6406
1.93619 3.92142 16.3235
1.91571 6.46844 27.817
2.46786 12.0783 41.0071
1.50523 2.59408 21.9093
1.65711 7.53307 26.733
2.12408 5.71466 28.9892
2.50174 6.99583 22.5555
1.48039 3.97257 16.2592
2.06063 11.747 30.4823
2.56444 13.7582 41.6709
2.56659 3.31781 20.9315
2.14771 6.15892 11.2036
0.930282 3.49064 20.2315
1.7433 7.5795 44.5362
3.58504 10.6689 24.4842
1.98814 13.8034 37.6755
2.49864 6.69409 34.7851
2.60329 4.5683 23.4944
1.74285 8.24774 24.4853
1.77628 7.29904 27.536
2.92564 10.9261 33.7647
1.88257 7.14768 32.4699
2.93212 5.73663 12.7682
0.950104 3.17005 15.4231
1.71373 6.4309 21.3138
0.835733 4.26217 25.1158
2.22095 14.8457 58.533
4.94341 16.0748 45.4463
2.31667 4.21676 14.3825
1.40012 3.72135 14.1955
1.36265 7.11711 23.578
1.8518 8.99301 52.8051
3.91909 4.19278 24.8691
3.03979 7.7976 18.3649
2.10144 10.3717 37.5054
2.6166 9.67867 24.0636
1.3329 3.52835 22.3267
1.38196 7.27567 30.9908
2.33214 5.67801 30.7692
2.2486 6.20398 13.0857
1.18864 7.31271 22.5608
1.58949 3.59545 11.0354
1.21445 7.82468 24.8221
1.33938 4.67308 13.6492
1.11901 4.15995 17.9869
1.78589 7.4721 32.8466
2.45236 5.68834 25.8541
2.06456 3.79091 14.0561
1.28945 5.90058 18.5511
1.21578 3.36441 12.5803
0.418687 1.83195 16.0955
1.38542 3.62702 17.8662
1.43612 6.36663 28.7862
2.60673 10.3962 44.4703
2.96796 8.23994 12.6226
0.790692 5.36762 31.5279
2.91748 7.36484 17.389
1.04217 3.25136 25.949
2.38932 8.85192 15.6026
0.992473 3.80961 11.3042
1.4384 9.98916 31.6377
2.05432 6.43376 30.4276
2.02896 9.99227 40.3464
2.33929 5.73206 26.0869
1.98983 6.6478 26.0038
1.6907 5.52238 17.5809
1.55299 7.48631 26.0816
1.81402 5.46504 24.2038
1.53432 6.64866 32.0723
2.4626 8.99627 25.0229
1.72675 8.56265 18.8193
1.23308 1.86972 18.4727
1.43446 4.56546 16.8451
1.23952 4.16406 22.8663
1.75001 8.32502 19.2274
1.38465 6.57136 40.1825
3.5567 12.2955 38.8624
2.39594 8.84711 34.991
2.96679 6.99402 19.0197
1.34362 3.76803 13.1884
1.30294 7.84527 28.6186
1.84885 5.50025 37.0791
2.71266 9.03459 19.0788
0.847261 6.85042 32.0231
2.07854 8.86526 40.8486
2.63499 6.21338 24.3925
2.05082 7.22251 18.8262
1.20993 6.33188 31.7221
1.76364 5.07336 15.6643
1.17211 3.34362 4.80311
0.184081 2.86375 18.6791
1.15386 3.3015 27.3189
1.50532 6.98778 41.5376
3.12111 15.2763 38.4349
1.98983 6.89276 31.5489
2.1663 6.15822 22.7527
1.85454 5.60719 25.8128
1.97708 2.75415 19.9912
1.88127 6.57341 18.4007
1.41581 9.55003 29.7093
2.14108 8.6825 47.7724
3.21532 10.9894 23.2238
1.57775 3.65072 15.3529
0.919432 5.61357 31.481
2.32947 8.05297 16.6437
1.41884 7.69215 31.2954
1.66786 5.78942 28.8622
1.50308 5.74454 15.0106
0.923948 2.41969 15.6601
1.29267 3.47773 9.65509
0.733333 2.26734 17.192
1.38874 6.52686 23.3799
1.85556 7.01069 23.3992
2.31203 7.45836 23.3994
1.08828 4.65095 18.4363
1.25048 8.98535 31.4449
2.07132 5.16067 25.8161
2.54383 7.99342 18.8848
0.944973 2.90941 24.5543
2.18148 8.75365 25.4771
1.92482 7.5271 22.8611
1.48934 6.72249 35.6417
1.66728 6.49225 32.7582
1.96996 5.52843 44.7638
3.0134 9.43304 23.9169
1.86518 12.279 27.1109
1.44073 9.60365 29.112
2.00466 6.38937 30.3801
2.22086 7.69292 35.0549
2.38087 5.52665 16.582
1.47044 3.14457 15.5805
1.35782 7.18019 28.1845
2.4447 7.16383 22.6062
1.7821 2.91945 12.3355
0.804498 8.41536 51.2395
3.70793 6.1863 7.8912
0.818351 3.90664 23.0488
1.49781 8.51174 8.75377
0.716205 3.731 20.4043
1.78573 5.51775 10.5564
1.08207 7.54024 20.9617
1.0963 6.01778 34.2346
2.74652 11.5753 43.1122
2.25038 6.08895 30.4999
2.00148 5.60249 36.5434
2.63084 6.06157 25.1083
1.94279 4.75541 13.7117
1.21191 7.44717 21.9385
1.44926 4.80326 23.9922
2.41076 10.5151 21.651
1.29463 4.81492 45.961
3.05401 11.6731 34.9907
2.32865 9.60137 37.7425
2.21807 4.58144 9.43252
0.726744 8.49108 33.9376
2.46437 4.59888 15.8459
1.06504 2.49231 17.4412
1.31117 4.25686 49.2831
3.24592 12.6751 23.5891
1.93828 5.82527 20.2635
1.94556 5.80561 18.3803
1.65587 5.14882 24.3143
1.71202 4.44672 16.5127
1.12683 3.87312 22.2161
1.662 7.66304 32.516
2.5544 4.1799 19.8461
1.73355 7.26278 13.2559
0.817363 8.45469 34.4354
2.07624 4.08047 24.4119
1.54238 6.98724 22.6486
1.884 5.47019 18.7167
1.03381 2.39488 20.4144
1.6615 3.97227 13.3288
1.18123 9.47977 37.4236
2.42818 8.55086 31.1194
1.98922 5.43881 17.5869
1.37911 4.715 22.0821
1.08749 5.07503 19.6147
1.61099 4.61762 11.603
0.784727 1.55323 11.3395
1.14951 4.03589 17.4724
0.993806 3.66501 12.6359
1.06651 5.45683 17.4645
1.18382 7.80058 24.4852
1.743 5.09586 36.9408
2.89059 5.33362 17.1968
1.2824 8.23303 26.5399
2.35895 7.53984 41.7879
3.11549 6.06719 15.889
1.34364 9.58506 30.7466
2.19706 4.325 26.5228
2.15465 7.03357 25.7278
1.77688 9.03168 28.3326
1.76912 5.62071 18.1281
1.219 5.95476 17.5647
1.10546 1.88301 12.3118
1.07158 5.14661 16.1641
1.43299 2.9434 8.66786
0.681903 4.0989 27.4468
2.10857 3.68129 22.5335
1.54958 3.29508 9.64857
0.849038 5.89065 18.0083
0.882108 5.24217 17.6707
0.865606 8.01993 37.4874
2.61828 2.22679 20.1079
1.67106 8.48398 26.7042
2.20467 6.6796 19.1443
1.64422 3.56319 14.2754
0.874809 6.85617 42.4114
3.48162 9.26359 34.5293
2.05833 6.56751 14.653
1.37876 6.52365 35.3559
2.74072 5.75077 31.3998
2.06494 8.35016 26.3555
1.93583 8.20159 26.6495
1.85267 5.68399 22.2305
1.50148 4.30132 25.4022
1.73597 7.98898 31.5428
2.41624 6.22387 28.2141
1.68421 8.86226 36.2938
2.14481 7.06472 12.0659
0.7743 3.99159 17.9427
1.53545 6.34144 21.2741
1.11154 5.08341 28.4307
1.32753 4.51429 13.3349
1.01386 5.20897 31.1405
1.97994 6.05136 19.8248
1.31116 7.95091 34.9248
1.9642 4.0774 26.226
1.85125 9.20122 20.1084
1.10048 2.40047 10.4999
0.715462 4.75336 13.9498
1.15423 2.80179 10.8615
0.868018 5.93629 28.4135
2.08257 8.21456 34.6412
2.12402 2.98186 22.8056
1.47614 7.7602 30.4522
1.97497 9.09587 23.1514
1.40859 3.90467 25.5429
1.19682 5.34474 12.5311
1.41423 4.38154 20.4187
1.14892 6.6217 37.4855
2.73702 6.74991 13.52
0.526611 4.89735 20.4216
1.80616 6.11093 35.7292
2.4725 6.67449 25.7868
2.26835 5.05224 22.7225
1.19771 5.45675 20.2686
1.22718 6.90684 23.7711
1.56669 5.78749 21.3042
1.41537 3.61088 19.2033
1.07213 4.88274 24.6529
1.68004 7.48969 30.4492
1.8252 8.43184 12.5638
0.871941 2.99235 26.4141
1.35941 6.32744 14.8887
1.06225 3.96451 24.9245
1.57022 3.62187 11.6709
0.856284 3.40046 17.4424
1.70593 5.6556 17.9486
1.09704 5.12997 27.1825
1.52801 9.81328 45.7939
2.85567 9.53387 34.0455
2.73837 5.24817 17.26
1.15154 5.98746 10.9377
0.834637 3.2301 23.8542
1.63648 6.0973 20.4871
1.29807 3.42626 19.1548
1.2574 3.81414 19.3522
1.43142 8.32649 17.7582
1.48243 5.27683 35.0046
1.98538 6.30424 15.4089
0.82152 3.7943 24.1574
1.56484 4.98731 38.5284
2.6217 8.90231 15.6835
1.41692 8.58159 40.555
3.29185 0 0