# pn-170911/RbIIA-34-RbIIF-1280-1959.psd
# Power spectrum* (dif=0,1,2) (really just |FT|^2)
# NOTE: only the first half! (symmetric)
# weeks: 1280-1959
# 1569 clock-days, 361 excluded
# PSD: 1441
4948.47 0.273965 0.0103855
237984 3.47879 0.00595986
1.42652e+06 30.5278 0.00649168
182849 6.57599 0.0060879
160042 12.2262 0.00696346
65110 6.3616 0.00667522
46228.4 7.27574 0.00721482
32283.6 6.10927 0.00737215
25812.3 6.72178 0.00775434
19983.7 6.14886 0.00793693
16377 6.28168 0.00902775
13335 6.2143 0.00946256
11518.6 6.37275 0.0101122
9482.64 6.0428 0.0107681
8136.99 6.05272 0.0111572
7486.19 6.18397 0.012241
6551.67 6.38829 0.0137641
5614.14 6.10541 0.0140933
4987.56 6.17811 0.0151422
4503.32 6.25652 0.0165238
4142.39 6.29928 0.0176019
3767.51 6.22728 0.0191616
3352.11 6.23896 0.0205772
2979.61 5.81391 0.0209224
2781.56 5.92476 0.0226359
2541.98 6.04749 0.0241157
2398.53 6.10617 0.0256325
2160.82 5.9171 0.0273911
2075.24 6.20418 0.0291723
1963.85 6.32918 0.0309385
1656.85 5.67014 0.0309036
1700.98 6.15887 0.0341298
1537.1 6.03755 0.0362988
1488.86 6.28342 0.0384617
1331.57 5.8718 0.0377242
1279.91 5.99883 0.040751
1213.4 6.05881 0.0447065
1189.57 6.15812 0.0468607
1077.54 6.10387 0.0472947
1047.63 6.07503 0.0502419
1056.51 6.36713 0.0553303
927.925 5.99898 0.0535222
891.649 5.96391 0.0556104
876.567 6.06436 0.0582098
824.38 6.02385 0.0608644
791.225 6.02174 0.0637488
743.985 6.0159 0.0671995
733.269 6.10846 0.068983
688.143 5.94523 0.0710481
681.273 6.21584 0.0763419
620.844 5.71452 0.0737536
623.916 6.15632 0.0825304
596.068 6.15124 0.0847972
566.037 6.03155 0.0880383
564.269 6.21039 0.0903178
550.583 6.33886 0.0979882
506.502 6.18656 0.0972422
510.457 6.16672 0.099688
477.207 5.99718 0.102502
473.73 6.22468 0.10855
449.719 5.93471 0.107609
436.841 6.18536 0.116159
421.616 6.24224 0.120455
391.735 5.82747 0.11524
400.223 6.28702 0.128091
377.54 6.25668 0.132259
377.2 6.17724 0.131745
367.381 6.40213 0.143864
354.793 6.20245 0.142111
344.793 6.31498 0.149037
335.387 6.25476 0.151175
314.668 5.99066 0.148804
310.886 6.20359 0.159299
298.346 5.99166 0.157608
295.414 6.12717 0.163979
291.181 6.07126 0.167433
277.147 5.98649 0.170583
275.282 6.27643 0.180137
263.597 6.05193 0.180448
263.752 6.38001 0.191352
259.091 6.16079 0.193445
238.2 6.08602 0.195371
233.074 6.0522 0.197123
226.573 6.08224 0.204726
225.915 5.99611 0.208072
221.652 6.07751 0.214657
212.198 5.9203 0.211388
206.222 5.93842 0.22058
212.239 6.24054 0.233948
202.572 6.0887 0.231088
202.705 6.1304 0.240559
184.401 5.85805 0.233493
191.014 5.95292 0.244803
188.537 6.37803 0.264144
187.613 6.22309 0.266566
183.268 6.10082 0.264645
167.454 5.98041 0.267772
185.404 6.4732 0.290816
171.177 6.22964 0.28888
164.686 6.11972 0.286499
164.985 6.29132 0.305805
169.226 6.51636 0.321075
154.708 6.00472 0.300812
160.202 6.16424 0.316391
152.878 6.17431 0.319486
149.679 6.24211 0.33231
154.85 6.40931 0.3487
139.851 6.11503 0.335412
137.514 6.01846 0.33839
134.762 6.08807 0.342637
135.393 5.9188 0.345449
136.034 6.3379 0.377723
128.349 6.0832 0.364994
122.767 6.05745 0.372469
127.049 6.21814 0.391661
121.651 6.21257 0.396604
114.197 6.00012 0.386286
120.624 6.33008 0.412625
116.725 6.07733 0.406698
117.672 6.10463 0.4157
112.978 6.04053 0.41958
112.776 6.16871 0.432356
110.861 6.41053 0.456426
108.421 6.09 0.436987
102.038 5.94055 0.437155
105.414 6.131 0.460234
100.599 6.014 0.453831
102.244 6.38212 0.492624
97.6277 6.06809 0.475746
98.6567 6.18058 0.490308
97.7261 6.24567 0.498657
101.138 6.56447 0.538065
93.6189 6.11616 0.508931
96.6141 6.26532 0.530439
90.1666 5.87755 0.499428
89.8607 6.10149 0.534017
89.6162 6.4052 0.565891
86.8535 6.03665 0.538284
87.3486 6.38472 0.577586
84.6487 5.96553 0.552516
83.8246 6.30107 0.589209
81.5961 6.23007 0.59049
80.6798 6.18852 0.598291
76.2284 5.97311 0.578709
80.4523 6.25798 0.616095
78.8375 6.20249 0.626891
76.6261 6.13941 0.623208
76.2336 6.05779 0.62075
74.8341 6.33721 0.665647
74.7228 6.1057 0.647799
76.6315 6.4909 0.69138
75.6737 6.13463 0.661993
69.9523 6.18603 0.678065
73.4632 6.21861 0.699136
68.024 5.95187 0.669132
69.0378 6.1825 0.699531
66.5491 6.08559 0.703277
66.6611 6.19849 0.723769
69.25 6.44874 0.770113
66.7494 6.42181 0.767421
67.2771 6.52205 0.796538
61.8086 6.21499 0.768239
65.2696 6.44902 0.80513
61.6824 6.24467 0.78693
61.4525 6.21283 0.783044
61.7889 6.05823 0.782851
62.5027 6.63879 0.861176
58.8936 6.16501 0.818451
58.5504 6.24375 0.839498
56.9564 6.04824 0.818063
58.3627 6.23867 0.849239
56.9252 6.18187 0.854026
55.9548 6.13574 0.856362
55.6794 6.14937 0.871983
54.3802 6.09689 0.870969
53.9805 6.24248 0.901871
54.0333 6.27958 0.921962
55.2403 6.46878 0.95695
54.0037 6.54639 0.972577
53.1014 6.27329 0.960596
53.1147 6.3507 0.979558
53.4153 6.43536 0.992833
50.6009 6.14042 0.964974
49.5367 6.06748 0.953286
52.5874 6.23839 1.00213
50.3817 6.27534 1.01874
46.9486 5.9918 0.979975
50.0893 6.18471 1.00665
49.6819 6.52985 1.09366
49.7269 6.38204 1.07272
46.7018 6.1677 1.04248
45.8446 6.08719 1.05304
46.8447 6.45629 1.12066
45.557 6.17164 1.07983
45.6818 6.35255 1.12233
43.5429 6.38132 1.13361
42.863 6.14102 1.11989
44.3341 6.40887 1.16211
42.853 6.0744 1.12987
40.3442 5.89413 1.09874
43.7733 6.4772 1.21698
40.0717 6.19718 1.20417
40.2734 6.22571 1.18288
41.2765 6.18045 1.19455
40.3877 6.4167 1.27076
39.578 6.2836 1.23249
40.6184 6.51071 1.30528
40.0258 6.33073 1.26954
39.2382 6.42377 1.28951
37.965 6.09916 1.25996
36.6867 6.14362 1.26906
37.9379 6.17138 1.28941
37.8995 6.44163 1.35372
36.7284 6.03863 1.29015
36.3463 6.27042 1.35249
35.5274 6.38129 1.38031
36.6678 6.36059 1.38478
35.7001 6.27456 1.38679
35.7419 6.3773 1.42249
35.5775 6.41284 1.44436
35.6596 6.38342 1.45339
35.2267 6.38874 1.44804
35.4788 6.40686 1.47655
33.4637 6.32686 1.48616
33.2483 5.99904 1.40069
35.0619 6.61012 1.57916
33.03 6.24838 1.4889
32.1343 6.26081 1.52444
32.8922 6.1551 1.48323
31.3287 6.10389 1.506
31.6657 6.19586 1.54751
31.1455 6.38891 1.59814
28.8813 5.7254 1.44999
31.7703 6.29809 1.5999
30.4694 6.19885 1.58654
30.9758 6.42558 1.66561
29.7005 6.09253 1.57786
28.5773 5.97646 1.58305
29.4939 6.13672 1.61243
28.7591 6.06007 1.63303
29.4908 6.23011 1.6718
28.6035 6.26001 1.71628
29.7832 6.33983 1.7187
28.3831 6.34705 1.74833
28.4873 6.34936 1.79026
29.7351 6.61545 1.82071
27.8773 6.36244 1.79162
26.1916 6.09349 1.74282
25.9764 6.24615 1.81092
28.0852 6.43141 1.83907
26.2091 6.08275 1.77977
26.9742 6.38912 1.86726
26.0615 6.07963 1.78686
26.8819 6.35938 1.89086
26.3736 6.39781 1.91927
26.3434 6.37318 1.92108
24.7814 6.07505 1.86335
25.5894 6.38408 1.96082
26.327 6.48185 1.98206
24.811 6.43185 2.00181
25.8075 6.39134 2.02307
25.1334 6.25498 1.96834
24.7265 6.3504 2.01894
24.988 6.40606 2.04945
24.3382 6.56115 2.12827
25.0396 6.37142 2.06371
24.3722 6.33227 2.06369
24.8305 6.67075 2.20885
23.7908 6.46611 2.14781
23.8871 6.38219 2.15063
24.09 6.53473 2.18612
22.7249 6.37937 2.19138
22.9959 6.21685 2.13533
22.9626 6.50775 2.26109
22.2638 6.02383 2.09337
22.9514 6.45184 2.25866
22.2019 6.25087 2.20999
21.9531 6.1839 2.20827
22.5936 6.57508 2.35212
23.9139 6.72968 2.40595
22.4515 6.38804 2.28351
22.1374 6.59757 2.41992
22.2079 6.54618 2.38481
22.0183 6.68867 2.46219
21.5957 6.65691 2.46711
21.8472 6.71307 2.53977
21.9857 6.85425 2.55497
21.1028 6.33165 2.38866
21.0442 6.25825 2.36551
21.8654 6.88007 2.6782
19.92 6.11311 2.3807
21.1106 6.4894 2.53799
21.0982 6.56089 2.56668
19.8386 6.27628 2.48722
19.8892 6.4607 2.55671
19.414 6.27062 2.50795
19.3658 6.35174 2.56838
19.3245 6.55617 2.70829
19.6483 6.26055 2.52716
19.523 6.40375 2.65184
19.3363 6.31711 2.62464
18.4024 6.23908 2.57819
18.5374 6.32195 2.64743
19.3083 6.55116 2.78901
19.0055 6.53112 2.78415
18.33 6.19387 2.63383
19.2547 6.76922 2.91477
18.9882 6.40617 2.75224
18.2243 6.30407 2.76756
18.3786 6.45659 2.83756
17.1843 6.10095 2.67473
17.7491 6.2537 2.76464
16.856 6.1533 2.75195
17.2757 6.39939 2.87016
17.0672 6.04608 2.75867
17.3837 6.25212 2.82278
17.1032 6.30945 2.88686
17.2218 6.49216 2.98982
16.6192 6.26929 2.90363
17.0776 6.3951 3.01224
16.5092 5.99641 2.79692
17.3385 6.42099 3.00913
16.9786 6.50535 3.08604
16.4981 6.47611 3.08406
16.1375 6.27255 3.02016
16.45 6.37702 3.12257
17.3982 6.66239 3.18575
15.0591 6.08715 3.00364
15.4784 6.08869 3.01886
15.3109 6.09618 3.03151
16.5585 6.47888 3.19967
15.933 6.47863 3.26776
15.4714 6.14119 3.08932
16.0796 6.46683 3.24587
15.5461 6.37194 3.23427
15.4621 6.43419 3.28146
15.5211 6.46281 3.30583
14.5944 6.06809 3.13185
15.2428 6.1067 3.1693
15.783 6.63788 3.49917
14.5851 6.18499 3.27742
14.5436 6.16072 3.33004
15.3753 6.86597 3.5908
14.5089 6.37201 3.41077
14.9854 6.529 3.55309
14.8756 6.49631 3.47811
14.3923 6.15836 3.36815
14.7072 6.29313 3.42173
14.2943 6.34575 3.48887
14.9351 6.67294 3.65453
14.4652 6.55276 3.67766
14.2593 6.53551 3.66111
14.2743 6.42944 3.64066
14.4185 6.39279 3.58785
14.0497 6.49263 3.68594
14.0695 6.47717 3.69769
13.7336 6.35115 3.63688
13.9059 6.58054 3.82903
14.209 6.44374 3.72683
13.7989 6.30211 3.67408
13.3613 6.29105 3.68842
13.732 6.46971 3.89669
13.6534 6.42379 3.71778
13.107 6.02425 3.62011
13.2778 6.37769 3.88367
13.2735 6.33411 3.79447
13.7419 6.67 4.02603
13.4993 6.51889 3.95027
13.3694 6.50466 3.94758
12.8993 6.2619 3.87663
12.9495 6.49884 3.98362
12.4682 6.42167 4.07608
13.6748 6.58876 4.05559
13.362 6.70511 4.18967
12.6994 6.60498 4.17021
12.1197 6.23341 3.99062
12.4944 6.4435 4.07908
12.5853 6.44488 4.16169
12.3921 6.52389 4.20022
12.3637 6.42648 4.13795
12.4232 6.52768 4.2414
12.4213 6.46809 4.24525
11.8614 6.3412 4.17677
12.2933 6.58832 4.34927
11.9059 6.22101 4.08033
11.8175 6.12983 4.08246
12.0836 6.67585 4.4425
11.7103 6.37111 4.28448
11.9695 6.51242 4.45988
12.8888 6.89174 4.67858
12.4066 6.79948 4.66354
12.4206 6.56154 4.51135
11.8662 6.30184 4.29079
12.1003 6.56645 4.5275
11.8251 6.68401 4.65782
11.125 6.26539 4.37078
11.5946 6.31587 4.41672
11.451 6.55417 4.59471
11.624 6.70887 4.79458
11.4552 6.56981 4.6324
11.4503 6.40596 4.51885
10.9147 6.31274 4.53763
10.9539 6.29344 4.59902
10.8793 6.44224 4.67858
11.086 6.43755 4.67807
10.7635 6.31672 4.62845
11.0288 6.72006 4.96093
10.932 6.5292 4.79886
10.47 6.11144 4.6234
10.8597 6.41153 4.75218
11.1009 6.74556 5.04268
10.8622 6.62966 4.98388
10.6654 6.62358 4.99592
10.4483 6.15365 4.67001
10.1687 6.44142 4.99111
10.1413 6.23627 4.76535
10.7292 6.60302 5.15885
10.6504 6.60598 5.07036
9.97495 6.47355 5.09003
10.5476 6.62569 5.10043
10.0471 6.45667 5.05088
10.1856 6.49163 5.07567
10.2699 6.55916 5.19747
9.81189 6.29407 5.04578
10.0255 6.42274 5.13196
10.1793 6.62649 5.31187
10.0456 6.54043 5.23408
9.87478 6.46932 5.19869
10.1321 6.55225 5.3403
10.4067 6.6918 5.40481
10.12 6.78241 5.53342
9.90569 6.76495 5.51385
9.91433 6.69119 5.57631
9.76715 6.52608 5.3824
9.71474 6.40035 5.35768
9.70153 6.71071 5.62992
9.33747 6.3813 5.37031
9.41598 6.26174 5.26732
9.70435 6.46454 5.40139
9.92673 6.73828 5.66342
9.52874 6.74261 5.71206
9.75551 6.60887 5.64511
9.48249 6.88721 6.00353
9.45056 6.56088 5.67906
9.27685 6.70208 5.85961
9.44796 6.53233 5.61909
9.13191 6.74922 5.93331
9.1822 6.5179 5.76166
9.77647 6.79624 5.87937
9.03363 6.59472 5.86344
9.00317 6.43223 5.73366
9.00605 6.40945 5.73651
8.97139 6.57448 5.93913
8.97725 6.44305 5.79754
8.81948 6.27153 5.71219
8.97417 6.46787 5.92073
9.45973 6.70942 6.09189
8.93772 6.56208 5.9933
9.07008 6.6957 6.1413
8.76277 6.45597 5.963
9.08823 6.69842 6.17809
8.55605 6.55687 6.0778
8.77203 6.63054 6.22257
8.66323 6.53268 6.08888
9.00054 6.76952 6.28628
8.50497 6.68798 6.38262
8.64448 6.63284 6.26959
8.5615 6.48322 6.15467
8.40353 6.43916 6.14992
8.02281 6.24303 5.99775
8.73312 6.56309 6.22653
8.34293 6.528 6.30989
8.48676 6.55834 6.57806
8.70923 6.73289 6.52661
8.45606 6.79729 6.5273
8.3096 6.42278 6.35374
8.27288 6.64358 6.6039
8.4453 6.60845 6.4846
7.85358 6.49894 6.55644
8.41877 6.55725 6.53954
8.23598 6.65083 6.5908
8.08424 6.43792 6.41621
7.805 6.50361 6.59274
7.92701 6.50474 6.61223
7.8189 6.16006 6.21183
7.70278 6.46855 6.60112
7.85505 6.6375 6.7958
7.90834 6.54656 6.74036
7.96709 6.58965 6.77877
8.32367 6.92462 7.13797
8.10902 6.68643 7.04153
7.71897 6.59547 6.76609
7.33484 6.52367 7.01841
8.04513 6.77707 7.05411
7.75381 6.59442 6.84393
7.62111 6.6547 7.13514
7.84121 6.50495 6.83134
7.66273 6.69716 7.11647
7.51212 6.54126 7.00554
7.71602 6.69482 7.16085
7.54011 6.42971 6.91734
7.82409 6.8411 7.3083
7.2431 6.49506 7.07586
7.20412 6.33822 6.98474
7.1833 6.23558 6.84245
7.45072 6.50174 7.13216
7.58837 6.84459 7.58306
7.54453 6.63469 7.31748
7.4913 6.62574 7.21641
7.29565 6.63155 7.36263
7.48804 6.71229 7.42555
7.1641 6.4511 7.43202
7.4526 6.70856 7.51947
7.28378 6.55078 7.3696
7.29681 6.59248 7.47837
7.45467 6.7098 7.56136
7.05133 6.39242 7.40797
7.54654 7.09767 8.04449
7.0876 6.61738 7.77901
7.20944 6.64046 7.51135
7.30729 6.80972 7.89425
7.45316 6.67323 7.61274
6.98523 6.50427 7.62853
6.982 6.64266 7.73679
6.95766 6.5516 7.64725
7.10716 6.65375 7.88815
7.1162 6.70731 7.983
7.16687 6.74699 7.99327
6.8568 6.56811 7.73833
6.84158 6.67008 7.85793
6.74971 6.64655 8.02368
6.8715 6.71476 8.05261
7.09343 6.62445 7.8987
6.68706 6.88414 8.37585
7.12145 6.89715 8.50133
6.94044 6.75867 8.06357
6.71963 6.56358 8.11153
6.7542 6.67065 8.10884
6.62066 6.38581 7.8855
6.96736 6.85214 8.37328
6.52873 6.48986 8.29174
6.57998 6.45517 7.94961
6.59068 6.61971 8.31767
6.98311 6.9578 8.50811
6.63238 6.66099 8.37031
6.29414 6.50427 8.16738
6.57937 6.84311 8.58587
6.96162 7.2694 9.12745
6.67796 6.84188 8.67083
6.49671 7.01335 8.78293
6.10003 6.46826 8.50023
6.84958 7.07074 8.88909
6.13343 6.41719 8.22553
6.60521 7.06482 9.15022
6.58371 6.82624 8.73009
6.1188 6.55126 8.73667
6.39057 6.69093 8.84668
6.76107 7.06199 9.24067
6.34237 6.79639 8.76749
6.60073 7.06774 8.9224
6.44547 6.93827 9.14077
6.55151 6.81982 9.06293
6.43864 6.74302 8.87662
6.31929 7.01245 9.48013
6.41565 6.94499 9.40984
6.13997 6.72708 9.04832
6.56083 6.74002 8.99607
6.32264 7.07622 9.27911
6.30984 6.69825 9.13936
6.27879 7.00337 9.49455
6.2154 6.56257 9.04679
6.18063 6.70868 9.10943
6.61313 7.12017 9.73201
6.34055 7.06233 9.65448
7.01825 7.28007 10.2204
6.45716 7.10265 9.65428
6.87821 7.07718 9.5111
6.36599 7.41395 10.4733
6.69908 7.27696 10.2001
6.16485 6.8712 9.56674
6.64368 6.98791 9.67111
6.41956 7.30669 10.2794
6.30875 7.04291 9.71012
5.81085 6.53375 9.51503
5.93535 6.61623 9.61457
6.19479 7.28682 10.3155
6.31059 7.17996 9.97584
5.88333 6.9456 9.91767
5.89614 6.67151 9.45959
5.85556 7.00738 10.087
5.95964 6.90653 9.89751
5.84311 6.89273 10.0765
5.79154 6.95176 10.1384
5.73932 6.75529 9.8186
5.87267 7.07471 10.3536
5.57549 6.63961 9.74488
5.80982 6.85193 9.8933
5.58214 6.90407 10.3607
5.62631 6.79464 10.0435
5.63324 6.87383 10.2137
5.68908 6.75603 9.90985
5.65088 6.88522 10.2661
5.62381 6.71594 10.0399
5.6257 6.93468 10.1171
5.62566 6.7374 10.1183
5.52279 6.54245 9.79532
5.40315 6.5829 10.063
5.43347 6.4117 9.48061
5.41332 6.68181 10.3099
5.57921 6.94665 10.559
5.47854 6.57703 10.0768
5.53054 6.72063 10.3335
5.32358 6.58828 10.1049
5.2233 6.52571 10.1836
5.58398 6.92525 10.5088
5.62725 7.00048 10.7011
5.31972 6.79824 10.6463
5.47737 6.8847 10.542
5.19934 6.45123 10.2846
5.25669 6.88956 10.9324
5.31557 6.82444 10.9055
5.50424 6.63418 10.2458
5.42513 6.98397 11.1474
5.43663 6.89392 10.7617
5.37234 7.02787 11.0824
5.33148 6.72436 10.5223
5.41749 7.17715 11.4447
5.43166 6.94196 11.0495
5.15646 7.00757 11.4754
5.56933 7.05614 11.1842
5.51018 6.85632 10.8176
5.4548 7.21857 11.833
5.20338 6.93405 11.2443
5.45426 7.12286 11.6659
5.23228 6.77227 11.0027
5.52311 7.22134 11.6627
5.29656 6.81671 10.8494
5.00603 6.78424 11.0603
4.90403 6.50289 11.0679
5.06732 6.57939 10.7654
4.80369 6.56867 11.1136
5.37447 7.30427 11.9795
5.18764 7.01262 11.7087
5.10264 6.7937 11.2772
5.07263 6.97284 11.688
4.96713 7.03096 11.8408
5.17032 7.02518 12.0005
5.37788 6.9608 11.2917
5.16853 7.22177 12.0288
5.02998 6.80382 11.5236
5.00054 6.80426 11.4822
4.85434 6.90433 11.7308
4.88666 7.0761 12.2498
4.81238 6.65474 11.2611
4.84554 6.90999 12.0827
5.09144 7.16476 12.128
4.89161 6.84633 11.7818
4.92588 6.88649 11.9372
4.95043 7.16534 12.3362
4.90044 6.94245 12.209
4.83814 6.61051 11.4769
4.63569 6.77992 12.0219
4.94682 6.93583 11.8893
4.89443 7.02317 12.0104
4.69458 6.94698 12.3531
4.79371 6.92038 12.3107
5.02777 7.23964 12.5823
4.79427 7.0023 12.3493
4.74787 6.92391 12.625
4.89278 7.15675 12.7041
4.68353 6.74872 12.1233
4.75208 6.80979 12.1889
4.8258 7.17749 12.938
4.9587 6.94723 12.5796
4.84003 6.9951 12.3404
4.60842 6.75557 12.4443
4.79905 7.10509 12.8728
4.80792 6.96571 12.1809
4.46887 6.5956 12.0705
4.45623 6.71614 12.5747
4.9295 6.91155 12.6054
4.57164 6.78134 12.3533
4.60013 6.90864 12.9103
4.61778 6.99815 13.106
4.54573 6.82706 12.4038
4.63635 7.03289 12.835
4.46226 6.80705 12.8081
4.54733 6.80091 12.6388
4.75466 6.95394 12.647
4.38119 6.70204 12.4872
4.51246 6.97293 13.075
4.27784 6.8375 13.1329
4.4891 6.54636 12.318
4.41986 7.00666 13.1806
4.62778 7.03387 13.3207
4.57964 6.95109 12.785
4.46989 6.80209 12.863
4.34699 6.61869 12.8318
4.62021 7.10217 13.1038
4.48855 7.0743 13.54
4.32684 6.55552 12.9062
4.38458 6.73344 12.6866
4.28627 6.47645 12.5286
4.26279 6.8795 13.3701
4.44744 6.86739 13.013
4.35949 7.06749 13.5716
4.26244 6.78682 13.379
4.27866 6.54515 12.8013
4.40573 7.01512 13.6291
4.46783 6.83265 13.1728
4.28278 6.74657 13.5151
4.49327 7.24058 13.9033
4.33342 7.12041 14.0948
4.20244 6.72231 13.4517
4.47291 7.06958 13.5982
4.25745 7.1365 14.3916
4.43714 6.87865 13.6217
4.53787 7.49873 14.4148
4.31898 7.01929 14.3176
4.24886 6.91617 13.8853
4.30072 7.13539 14.059
4.15251 6.74413 13.8655
4.08182 6.73678 13.7078
4.35213 7.03948 13.9803
4.2141 7.16395 14.1804
4.38544 7.11186 14.1753
3.97336 6.71985 13.9037
4.22789 6.9718 14.225
4.0633 6.79857 13.7217
4.23761 6.84011 13.85
3.95543 6.96776 14.6485
4.13234 6.85022 14.0806
4.08181 6.7859 13.9792
4.33414 7.03721 14.4246
4.03625 6.82826 13.8221
4.04727 6.73446 14.1959
4.22889 6.96929 14.3008
4.18803 7.29255 14.8886
4.16971 7.28934 15.1487
4.15269 7.13287 14.9231
4.25404 7.22001 15.0881
4.04383 7.00058 14.4238
4.11672 7.07632 14.8335
4.02893 6.95927 14.9102
4.14531 7.04113 14.5895
4.00821 7.15406 15.1885
4.19034 7.19338 15.3883
4.08187 7.11791 15.0582
4.15357 6.93178 14.5766
4.05629 6.95811 14.9562
4.15601 7.19708 15.0499
3.90215 6.7776 14.6535
3.80189 6.87214 15.4271
4.28863 7.17665 15.0162
4.02027 6.75439 14.0571
3.86178 6.87709 15.2266
4.2292 7.19662 15.0634
3.83316 6.78657 14.8341
3.93423 7.14334 15.4371
4.08027 7.14036 16.1743
4.20068 7.34426 15.8822
4.12972 7.05947 15.1026
3.87273 7.03397 15.2803
3.96197 7.08966 15.5188
3.85141 6.7181 14.6644
3.86019 6.98643 15.3681
3.9563 7.3656 16.4346
3.89787 6.8636 14.8748
3.65305 6.85683 15.3141
3.86473 7.02276 15.8009
3.969 7.18356 15.9169
4.11644 7.2608 15.7876
3.87809 7.16127 15.7481
3.84618 6.97789 15.437
3.8133 6.91486 15.2559
3.65842 6.64136 15.2774
3.94923 7.01775 15.587
3.72692 6.80167 15.5281
3.8368 7.16443 16.3955
3.74657 7.01831 15.8737
3.77631 6.738 15.4333
3.81917 7.14265 16.3558
3.89728 7.18976 16.2151
3.92812 7.368 16.5403
3.86927 7.26663 16.5419
3.92767 6.84644 15.9479
3.81121 6.90855 15.5353
3.81841 7.21065 16.3854
3.77087 6.92242 15.7968
3.86562 7.34835 16.4824
3.84644 7.35431 16.9869
3.89514 7.20016 16.4435
3.72124 7.05769 15.9499
3.72317 7.34265 17.1917
3.77235 7.10314 16.5132
3.6824 7.0507 16.69
3.80528 6.77908 15.729
3.69419 7.03181 15.9545
3.69557 7.11039 17.2443
3.83152 7.53781 17.2949
3.65186 7.02324 16.3562
3.55412 7.11134 17.2531
3.68748 7.18577 16.6643
3.69632 7.31638 17.5534
3.62265 6.96682 16.7321
3.78627 7.12179 16.26
3.5198 7.01548 16.8832
3.58802 7.04935 17.3535
3.8891 7.38803 17.0058
3.62527 7.13269 16.8983
3.49661 6.95592 16.9551
3.59842 7.15074 17.3367
3.74585 7.3172 17.4305
3.72773 7.22913 17.2899
3.59027 7.22657 17.9641
3.80002 7.51089 17.5983
3.58613 6.97582 16.7505
3.56769 7.34687 17.8762
3.66829 7.14547 17.4503
3.69683 6.97854 16.6964
3.57634 7.07026 17.2988
3.6611 7.36553 18.212
3.65293 6.88114 16.6896
3.65241 7.19268 17.7063
3.54771 7.00183 17.4801
3.60827 7.3984 17.5026
3.58837 7.44612 18.7298
3.81287 7.45491 17.9409
3.53802 7.12922 17.6056
3.56112 7.46159 18.2279
3.64164 7.19872 17.6226
3.39818 7.1216 17.6675
3.43728 7.01255 17.2406
3.34652 6.94755 17.6283
3.56148 7.18493 17.7006
3.4535 7.20029 17.8408
3.48535 7.09019 17.7989
3.49814 7.48392 19.1099
3.58832 7.09098 17.8647
3.5521 7.5414 18.6975
3.30311 7.07405 17.8725
3.38966 7.18631 18.7781
3.68411 7.51221 18.5109
3.53816 7.3328 18.7409
3.55815 7.48275 19.0307
3.58241 7.32158 18.5966
3.54969 7.40347 18.8417
3.4554 7.25486 18.713
3.62769 7.38554 19.1482
3.50032 7.42748 18.7348
3.5448 7.34056 18.9178
3.61998 7.40058 18.4687
3.49036 7.48492 19.4982
3.50134 7.26673 18.8553
3.60586 7.76206 19.4977
3.52084 7.5317 19.3838
3.46631 7.36086 19.3442
3.52972 7.24791 19.027
3.69827 7.97158 20.0405
3.49186 7.69123 20.2613
3.51161 7.64703 19.9733
3.63855 7.75628 20.5899
3.75091 8.07924 21.0407
3.7615 8.17889 20.4422
3.37405 7.59725 21.9484
3.81545 8.09397 20.5328
3.61738 8.30016 20.9553
3.55643 7.91695 21.6077
3.65306 7.8066 20.445
3.57312 7.72108 20.4568
3.5493 7.70967 19.4722
3.30201 7.44282 20.2134
3.53102 7.6885 20.0887
3.40216 7.34085 19.537
3.35207 7.44379 20.1136
3.41567 7.3621 19.4308
3.33728 7.41456 19.652
3.31281 7.39272 19.7395
3.29227 7.23285 19.2842
3.28405 7.33022 19.9125
3.24382 7.26561 20.1181
3.50948 7.68193 20.467
3.31642 7.40406 19.9702
3.49384 7.4453 19.9468
3.36601 7.3889 20.2301
3.34879 7.3043 19.8748
3.40282 7.56537 20.176
3.289 7.28443 19.4094
3.17981 7.21522 19.272
3.19753 7.47934 20.7764
3.34807 7.58417 20.2532
3.24143 7.13562 20.0838
3.4242 7.52402 19.6099
3.14914 7.27467 20.5487
3.22809 7.22434 19.8427
3.32981 7.66209 21.0377
3.3957 7.18823 19.3147
3.17659 7.43572 20.4767
3.15482 7.14198 19.9488
3.15804 7.158 19.5733
3.14844 7.13715 19.4229
3.19673 7.27949 20.2613
3.22104 7.08311 19.8664
3.3098 7.43438 20.3963
3.16863 7.31552 20.5233
3.26173 7.64855 21.3297
3.25959 7.23725 20.6722
3.33513 7.51989 20.907
3.23008 7.4148 20.3817
3.17735 7.60025 21.4405
3.21006 7.50652 22.0307
3.287 7.3491 20.216
3.18108 7.67251 20.9209
3.15313 7.40447 21.0474
3.18615 7.22386 20.5763
3.11617 7.47193 21.239
3.15163 7.38771 23.344
3.92917 9.22818 22.6687
3.08627 7.65598 22.1974
3.30115 7.55473 21.2177
3.1068 7.33488 20.9953
3.16289 7.26447 21.079
3.14181 7.50787 21.636
3.23529 7.70128 21.7229
3.07925 7.1679 20.6047
3.06001 7.41534 21.5729
3.20312 7.51854 21.1253
3.09845 7.56445 21.9014
3.04854 7.1248 20.7045
3.13367 7.63525 22.016
3.17027 7.578 21.7947
3.10998 7.44376 21.2421
3.0601 7.12142 21.0715
3.08365 7.19415 20.6045
3.22083 7.49905 21.5909
2.97853 7.17784 21.0892
3.06832 7.47883 21.9635
3.09583 7.30641 21.3296
3.0397 7.45426 21.3867
3.05227 7.42003 21.4314
2.87208 7.10071 21.4095
3.06956 7.17192 21.2056
3.16096 7.59744 21.9217
3.11492 7.40211 21.0814
2.97695 7.20107 20.631
2.86602 7.18278 21.4199
2.92358 7.20179 21.1847
3.02095 7.3996 21.9537
2.96562 7.24936 21.1277
2.79566 7.06067 20.7554
2.86912 6.89109 20.9455
3.00681 7.50006 22.068
2.91227 7.11184 21.1155
3.05054 7.28679 22.5256
3.19083 7.85425 22.5415
3.06156 7.20033 21.4885
3.00362 7.46294 22.1127
2.92302 7.12279 22.0165
3.06326 7.69979 22.5337
2.94661 7.44379 22.223
3.07613 7.63605 22.5959
3.04804 7.32779 22.9746
3.21048 7.66717 22.9037
3.10812 7.41989 21.7749
3.06147 7.4225 22.4562
3.05691 7.20258 21.2636
2.95312 7.19865 22.7254
3.01188 7.33556 22.1747
3.07521 7.28109 22.1273
3.11872 7.76636 22.8179
2.96367 7.4589 22.7975
2.93081 7.49614 23.0836
3.0512 7.55321 23.5916
3.10495 7.47667 22.5369
3.08201 7.73605 23.3921
3.01235 7.64439 22.9041
3.04456 7.72008 24.14
3.1376 7.79218 23.0447
3.0305 7.53987 22.98
2.87236 7.75217 23.8968
3.00927 7.27653 22.6453
2.91742 7.31502 22.3758
2.77133 7.29975 23.0048
2.91416 7.18423 21.6499
2.76841 7.19704 22.3328
2.89879 7.51782 23.3272
2.93075 7.36527 24.1939
3.19105 7.5638 22.5601
3.01907 7.60639 23.1346
2.85746 7.35171 23.848
3.13616 8.15714 25.7863
3.04744 7.60424 23.3895
3.01138 7.606 23.4669
2.91054 7.41495 22.8453
2.99594 7.39808 22.8484
2.75753 7.1262 22.619
2.90098 7.38757 23.3731
2.86621 7.48216 22.8631
2.87952 7.63127 23.3358
2.85207 7.48763 23.4679
2.89818 7.47189 24.3461
3.04363 7.4489 23.6632
2.99336 7.71388 24.0269
2.90206 7.31549 23.131
2.81348 7.5389 22.813
2.7233 7.14705 23.3129
2.90355 7.62142 23.5772
2.86814 7.30116 23.9466
3.01045 7.63739 24.5634
2.93614 7.52846 23.2602
2.85096 7.68145 24.5944
2.90225 7.85756 25.6339
2.88864 7.2632 23.6154
2.92409 7.50497 22.6631
2.67521 7.32939 23.7196
2.82635 7.46073 23.4334
2.73095 7.24842 23.7557
2.84113 7.69247 24.5506
2.83702 7.18229 23.0432
2.85059 7.47979 24.0158
2.86687 7.7347 25
2.86698 7.59337 23.4908
2.7697 7.34828 24.7307
2.89033 7.45716 23.7267
2.83569 8.01126 25.343
2.77951 7.56363 24.6117
2.81359 7.38628 23.8481
2.70939 7.36649 23.7005
2.7635 6.91822 22.8536
2.69652 7.11662 23.785
2.80177 7.51533 24.0562
2.79943 7.78155 24.7221
2.74596 7.38851 24.339
2.76305 7.21078 23.591
2.7214 7.66716 25.2881
2.81495 7.53901 24.4112
2.69492 7.51003 24.6041
2.73546 7.21836 24.7408
2.87994 7.55062 24.2729
2.80443 7.89774 24.6694
2.62298 7.32776 25.3635
2.7994 7.33672 23.9351
2.76811 7.73592 26.0451
2.81616 7.40461 24.33
2.80588 7.79892 25.5097
2.74983 7.50744 24.4752
2.72177 7.58276 24.286
2.69514 7.36614 23.9875
2.70269 7.17943 25.0992
2.79448 7.38149 24.5204
2.77982 7.69726 25.5245
2.86506 7.64464 24.7591
2.71121 7.49846 25.1016
2.77206 7.94922 26.6751
2.84976 7.79369 25.3717
2.74994 7.61584 26.271
2.77956 7.48542 25.2935
2.79395 7.32464 23.509
2.63052 7.78624 26.1568
2.66054 7.62113 25.0511
2.72497 7.67111 25.6699
2.73681 7.63572 25.2131
2.72812 7.6364 26.6206
2.7539 7.57266 25.1002
2.7532 7.26513 24.3684
2.62664 7.54402 25.7718
2.67398 7.23995 24.6911
2.65924 7.51682 25.1875
2.7372 7.96061 25.8015
2.62999 7.27311 25.635
2.70744 7.74695 26.1588
2.76136 7.5423 25.3953
2.66788 7.71894 27.3208
2.85139 8.24645 27.5052
2.7486 7.55077 25.2863
2.64969 7.52712 25.8276
2.61544 7.39616 25.3887
2.6823 7.81653 27.0095
2.7811 7.90838 25.6932
2.57662 7.50977 25.7543
2.67943 7.79692 26.9264
2.70602 7.72371 26.0035
2.61547 7.4566 26.4303
2.76751 7.88311 27.2175
2.76735 7.4885 26.3586
2.78301 8.1097 26.0282
2.62987 7.43982 25.8558
2.69159 7.59446 26.5484
2.69515 7.69893 26.6428
2.77012 7.75106 26.8678
2.7177 7.67615 25.4094
2.64383 7.75132 26.4454
2.62267 7.61314 25.7392
2.56594 7.39762 26.3606
2.7557 7.89349 26.994
2.79442 8.06745 26.8334
2.65303 8.06444 28.2349
2.66808 7.23755 25.3501
2.57869 7.49144 25.7533
2.60496 7.68188 26.2177
2.59975 7.46289 26.6334
2.7183 7.87781 27.0813
2.74194 7.98643 27.1505
2.54103 7.61851 27.552
2.6793 7.67767 26.7594
2.7594 7.55944 26.288
2.64601 7.82082 27.784
2.75254 7.69787 26.2812
2.57193 7.52132 27.0678
2.7206 7.69283 26.0942
2.59948 7.60268 27.5303
2.71124 7.68222 27.2195
2.68098 7.61345 26.8138
2.62593 7.58083 26.7652
2.66055 7.79867 26.871
2.7232 7.90914 27.3183
2.50446 7.61553 27.4592
2.75179 7.83099 26.8114
2.59596 7.40705 26.0275
2.63491 7.66101 27.2309
2.65295 7.64866 27.0873
2.59678 7.35031 26.6757
2.59462 7.51155 26.3864
2.68469 7.8984 27.5393
2.54335 7.09433 25.7268
2.5484 7.71541 27.2009
2.54519 7.23305 26.6891
2.60001 7.78966 27.183
2.64262 7.65897 26.8473
2.6466 7.78457 27.9219
2.66466 7.87427 27.8037
2.64044 7.72998 27.6504
2.66214 7.83549 27.1512
2.51261 7.86642 29.2598
2.7022 8.02221 27.9465
2.54921 7.91284 27.1629
2.5772 7.52106 27.2296
2.54726 7.81411 28.4772
2.581 7.8355 27.4466
2.57898 8.07555 29.4176
2.71013 7.71733 27.1736
2.5799 7.84948 28.9529
2.62079 7.75206 28.4312
2.65923 8.29006 28.9558
2.6825 7.99162 29.8541
2.7878 8.15263 30.4511
2.88467 8.32236 29.4643
2.73139 8.3894 30.3215
2.90879 8.33529 29.3224
2.70804 8.77155 31.7515
3.02598 8.9633 31.8792
2.87653 8.4615 28.6354
2.641 8.06513 30.7736
2.86501 8.87765 31.6126
3.06811 8.50973 30.9043
2.81762 7.8722 29.5548
2.88315 7.94358 28.8538
2.54715 8.01871 28.2358
2.66711 8.15907 29.1224
2.61035 7.80569 29.4099
2.73242 8.15632 28.6271
2.56044 7.97006 29.8887
2.70811 7.78371 27.8585
2.49026 7.83194 28.4968
2.58574 7.73545 28.9145
2.66147 8.28674 30.3241
2.71057 7.84734 29.2719
2.70975 8.32455 29.8445
2.75834 8.27509 29.1303
2.53632 7.71352 28.3152
2.53173 7.94213 28.1897
2.46068 7.5454 28.3645
2.57249 7.55931 27.463
2.49276 7.78857 28.9124
2.52261 7.81261 29.7667
2.71841 8.04424 28.5108
2.48447 7.97115 29.4027
2.57062 7.89332 29.4094
2.54148 7.70114 28.6866
2.62926 8.0888 29.5493
2.55758 7.85986 28.6987
2.53899 8.03892 29.3484
2.55621 8.06902 28.6159
2.47244 7.63967 29.9325
2.63952 8.06905 28.3587
2.53556 7.45099 28.2391
2.52483 7.59982 27.9213
2.47478 7.56123 27.5404
2.44676 7.48104 28.8138
2.57468 7.8537 28.3917
2.55771 7.59913 28.6344
2.48015 7.80353 28.8756
2.52413 7.89144 29.2915
2.57598 7.99719 29.868
2.45878 7.81068 28.8219
2.52351 7.67437 28.1121
2.49023 7.96691 29.2715
2.50689 7.75354 29.26
2.53995 7.74958 29.5809
2.54913 7.51482 27.9918
2.45392 7.96595 29.2932
2.49868 8.11028 29.5336
2.49004 7.45478 28.1114
2.41531 7.6859 29.108
2.53525 7.77925 29.5139
2.57507 7.75151 28.4794
2.46792 7.68556 28.3042
2.41609 7.52634 27.1593
2.36311 7.33013 29.1653
2.55112 7.68368 27.8831
2.41093 7.49474 29.2809
2.55457 7.70006 28.8576
2.45558 7.98434 29.85
2.53318 7.72626 28.8416
2.46374 7.84522 28.523
2.36589 7.54551 28.0144
2.36841 7.78473 29.942
2.40663 7.61625 29.2688
2.41846 7.80325 29.6814
2.47595 7.83015 29.4267
2.51056 7.86296 29.7627
2.48877 7.67257 30.0606
2.61903 7.9278 29.9785
2.53318 7.70293 28.8561
2.43099 7.55539 29.4481
2.55754 8.06971 28.8625
2.44033 7.75735 31.2512
2.62955 8.15154 30.2494
2.55065 8.36642 30.3391
2.47378 7.58245 29.2922
2.42651 7.64137 29.6888
2.52354 7.94343 28.182
2.38489 7.34696 28.0001
2.32406 7.47443 30.1036
2.47857 7.73148 29.3501
2.50686 7.74813 28.2963
2.36499 7.55491 28.7286
2.41361 7.97642 30.6167
2.46507 8.02025 29.4321
2.39966 7.65685 30.8128
2.58978 8.07998 30.8349
2.4971 8.00692 30.3944
2.49376 7.93555 30.2721
2.48062 7.75642 30.2735
2.47724 7.70915 29.484
2.4365 7.77417 30.0757
2.50159 7.91424 29.0394
2.45365 7.72136 28.1721
2.3303 7.30848 29.7246
2.51573 7.67092 29.5351
2.48886 7.86204 31.1971
2.51916 8.11054 30.3479
2.41224 7.69128 29.2331
2.42397 7.61211 29.2018
2.37836 8.06468 30.1608
2.48884 7.94081 30.7445
2.49955 7.5961 30.0438
2.4707 7.62812 29.1616
2.36073 7.83002 31.1767
2.635 8.04113 29.9339
2.41998 7.66979 30.1182
2.42823 7.86724 31.0415
2.52796 8.08672 30.4093
2.45561 7.92151 30.7515
2.46531 7.73335 29.1186
2.37288 7.90619 30.6579
2.47517 7.94398 30.3937
2.45259 7.92906 30.6156
2.42879 7.7117 29.9069
2.43631 7.62826 29.1562
2.38686 7.56922 28.7085
2.32063 7.73051 30.0377
2.41124 7.64821 29.115
2.34249 7.62777 30.2041
2.42716 7.39854 27.8945
2.32675 7.74942 30.2324
2.38615 7.75477 29.8587
2.29283 7.75402 30.4612
2.41082 7.64534 29.4598
2.38749 7.58781 30.0322
2.36917 7.79549 30.4242
2.50111 7.56812 29.093
2.39183 8.03427 30.6329
2.50229 7.54172 29.6413
2.41094 7.50538 29.1356
2.3954 7.68154 30.4758
2.39239 7.8144 30.0419
2.41719 7.92412 31.0506
2.4179 7.31308 29.0229
2.39416 7.98609 30.2421
2.38865 7.60027 30.0696
2.44179 7.72043 29.2727
2.40229 7.9757 30.1304
2.34371 7.78645 30.5558
2.44579 7.90904 30.4012
2.44739 7.83729 29.7124
2.37255 7.92209 30.8317
2.28588 7.53731 30.3019
2.40312 7.58206 30.3922
2.43593 7.76885 29.6751
2.40432 7.76504 31.4646
2.49847 8.03121 29.8971
2.31143 7.75634 30.6347
2.40683 7.90136 30.342
2.34356 7.62077 30.9181
2.48005 7.93228 30.9806
2.40719 7.8223 31.3461
2.534 8.22003 31.7119
2.43549 7.8416 30.1992
2.34122 7.57825 31.6706
2.48346 8.1891 29.5479
2.3129 7.53154 29.9201
2.27023 7.70017 30.2082
2.34936 7.77816 30.2022
2.36659 7.66199 30.088
2.33817 7.68015 29.9052
2.25825 7.69966 30.0291
2.38663 7.85782 30.4481
2.39111 7.47217 30.3731
2.3432 7.64537 29.5977
2.31512 7.89315 30.9067
2.29447 7.53631 30.1828
2.37204 7.5796 29.3534
2.31083 7.64929 30.1327
2.33741 7.80508 30.4973
2.36609 7.66629 30.2179
2.34141 7.54396 29.3525
2.33681 7.70898 30.7407
2.42509 7.86639 30.2981
2.36901 7.72202 30.1402
2.33387 7.79643 31.3357
2.45271 7.8359 30.0138
2.3675 7.7626 31.5923
2.41832 7.88439 31.6187
2.46328 7.93698 30.2792
2.3437 7.59405 30.8883
2.51735 7.93998 30.6359
2.40336 7.88353 30.7644
2.41999 7.69077 30.5291
2.40747 7.43334 30.1017
2.36874 7.72322 30.7185
2.35862 7.77758 30.9089
2.48696 7.52563 29.6419
2.3165 7.79826 30.7129
2.40294 7.76625 29.0135
2.26302 7.60185 30.4313
2.32719 7.63596 31.6367
2.35737 8.11827 30.181
2.31627 7.41902 30.9567
2.3933 8.05202 31.4818
2.43007 7.94973 31.2611
2.39697 7.72923 31.6721
2.3894 8.05557 31.1185
2.42229 7.65654 30.0646
2.34449 7.773 31.2778
2.41948 8.09119 31.033
2.4365 7.87046 32.5467
2.52965 8.01485 30.929
2.36047 7.75531 29.8737
2.39251 7.63779 30.7519
2.334 7.56995 29.433
2.35615 7.57878 31.4169
2.3846 8.06599 30.9857
2.48118 8.17479 31.0048
2.35418 7.59555 31.1555
2.42974 8.08251 30.8422
2.30636 8.41799 33.917
2.47215 7.86778 32.6723
2.54451 7.9968 30.7309
2.26755 7.74806 31.3626
2.33918 7.52358 30.0674
2.22032 7.59957 31.3328
2.40604 7.75333 29.3245
2.25669 7.39286 30.7643
2.34457 7.73375 29.9923
2.26608 7.66254 29.8567
2.25326 7.73075 30.951
2.35274 7.5037 30.0207
2.21353 8.07163 33.1507
2.50558 8.06291 30.5947
2.32132 7.94511 30.0992
2.29735 7.55015 30.9554
2.29856 7.92743 31.6887
2.31216 7.71687 31.8617
2.437 7.80799 31.2766
2.37438 7.87273 31.2088
2.33287 7.60768 30.6991
2.28735 8.11672 31.8236
2.39737 7.86241 33.6726
2.47149 8.28996 31.0337
2.32295 8.09468 33.3671
2.48024 8.18186 31.8291
2.36971 8.20309 32.55
2.4811 8.2435 33.7315
2.56809 8.18269 32.2334
2.438 7.8424 30.9314
2.35615 7.7769 31.2836
2.35854 8.15387 33.1699
2.48825 7.94074 30.54
2.33372 7.88401 32.5001
2.45616 7.92413 31.2863
2.30548 7.87039 31.3995
2.38859 7.81375 31.6057
2.43087 7.96374 30.3901
2.28957 7.51515 32.2643
2.43881 8.00372 31.9203
2.38882 7.72133 30.5095
2.38187 8.11809 31.887
2.4054 7.90507 33.0933
2.49231 8.16849 31.6361
2.36768 7.93253 31.8907
2.42024 7.89593 33.362
2.49464 9.15301 33.2228
2.51304 7.76506 30.964
2.31646 7.55124 31.0968
2.39196 7.89612 32.5234
2.45188 8.06648 30.3822
2.28021 8.28842 31.5276
2.3737 7.49232 31.9723
2.41743 8.01927 32.3593
2.43488 7.88382 30.8679
2.36749 7.71813 31.1431
2.33658 8.10065 32.7821
2.48263 7.98606 31.3735
2.379 7.99725 32.012
2.38876 7.97064 31.2908
2.33899 7.97254 32.6975
2.45907 7.83111 31.911
2.44056 8.17127 32.9993
2.4199 8.04819 31.2881
2.39535 7.98169 33.2253
2.4355 8.41637 31.3701
2.35976 7.98759 31.8926
2.4107 7.96072 33.5241
2.43869 8.38498 31.8917
2.37244 7.94325 34.0127
2.49135 8.47744 34.9867
2.60851 9.00414 35.0035
2.59451 8.60491 35.3363
2.62202 8.56924 31.5951
2.40797 0 0