# pn-170911/RbIIA-25-USNO-1280-1959.psd
# Power spectrum* (dif=0,1,2) (really just |FT|^2)
# NOTE: only the first half! (symmetric)
# weeks: 1280-1959
# 6 clock-days, 3 excluded
# PSD: 1441
3559.55 0.175651 0.00126085
81402.7 3.69844 0.000536128
283000 11.7727 0.000686846
346459 10.2669 0.00134608
93484 4.76565 0.00135903
57380.8 11.05 0.00167812
40912.1 11.9633 0.00292239
26352.3 2.38702 0.000963048
17624.6 1.61818 0.00132986
48520.4 10.9973 0.00565179
9029.07 2.85457 0.00156099
4885.94 2.92993 0.00246477
8319.92 3.64605 0.00262607
7641.22 1.86596 0.00234345
4066.27 6.25961 0.00690003
6465.63 3.64122 0.00385081
3601.19 3.68707 0.00603348
5879.5 2.80861 0.00441248
4435.53 2.86511 0.0048903
3575.15 4.0674 0.00605289
4046.86 3.44139 0.00764608
2849.3 5.29523 0.0118899
1632.03 1.63632 0.00517204
1097.06 1.79484 0.00532851
898.867 2.63969 0.00823118
2267.47 2.82137 0.00796751
1475.24 0.979172 0.00399589
1235.34 1.75801 0.00578021
1078.41 2.06637 0.00766298
1327.79 2.1138 0.0114084
1431.23 3.38228 0.0140301
1282.25 2.49562 0.0114904
914.533 1.35215 0.00649325
408.5 1.50243 0.00690223
491.714 1.75329 0.0106461
1476.38 4.97669 0.029477
544.555 1.97048 0.01262
516.959 2.90132 0.0189334
857.74 2.35444 0.0163747
480.679 1.48003 0.0105544
585.254 2.80378 0.0220172
237.765 0.368666 0.00469551
307.444 2.08898 0.0158944
314.904 0.395032 0.00357969
559.402 2.42418 0.0224446
440.519 3.75154 0.0343389
438.177 1.60862 0.0178115
274.326 2.22108 0.0212506
543.026 3.43015 0.0365644
620.89 3.78297 0.046815
499.473 2.77908 0.0368181
696.35 5.20084 0.0631667
441.31 4.43963 0.0579179
274.619 1.29802 0.0176932
359.607 1.40131 0.0214542
196.611 1.5738 0.0229752
97.7962 1.61956 0.0242178
268.454 4.25131 0.0597075
145.02 2.22812 0.0360699
332.566 4.40902 0.0759706
271.136 1.48661 0.0289195
293.451 2.63336 0.0463621
326.97 3.06971 0.0606879
253.152 3.60125 0.0696413
348.05 3.12896 0.0644713
322.566 2.44593 0.0475194
141.775 2.74462 0.0603502
139.212 1.96298 0.0435217
179.731 3.34829 0.0728
135.453 0.924631 0.0212068
121.817 1.34315 0.0303277
197.327 2.91916 0.0701139
222.636 1.58557 0.0455053
146.537 2.25066 0.0584583
137.993 1.53125 0.0363958
78.4944 1.62351 0.0433633
257.188 2.59583 0.0712574
74.6546 1.50877 0.0422118
223.223 2.12346 0.0582095
145.414 2.19441 0.0652098
139.692 2.11139 0.0643281
130.043 1.42059 0.0433516
138.396 2.80184 0.0933644
163.771 1.5789 0.0558715
75.3332 0.785072 0.0235074
88.5806 0.771536 0.0269052
108.855 0.824242 0.0311579
149.343 3.13592 0.110578
124.371 1.4922 0.0616947
202.274 4.0658 0.161325
146.621 2.14483 0.0814861
161.228 2.92966 0.115045
147.22 1.94051 0.0837895
146.637 1.81212 0.0759616
145.701 3.57726 0.15085
77.8772 1.40887 0.0602027
56.4147 1.38599 0.0662027
82.8259 1.87459 0.0809887
155.991 2.23982 0.101758
68.3578 1.7569 0.0757576
80.3194 0.831244 0.040004
94.9287 2.31565 0.117926
140.369 1.73093 0.0792203
84.9873 1.47961 0.0715093
113.348 4.08908 0.200445
72.1412 3.21513 0.180288
116.458 2.52251 0.151917
94.0671 1.64757 0.0899391
50.9214 0.669014 0.0407347
68.8613 2.16941 0.120863
148.765 5.99508 0.341364
48.7133 1.8966 0.126302
107.345 2.85355 0.163055
76.7442 2.56676 0.158597
86.4361 1.97169 0.108887
80.1332 3.46428 0.220596
52.5804 1.44652 0.0888842
75.753 1.21457 0.0907319
62.5404 1.25441 0.0818538
65.8644 3.1475 0.206518
81.7623 3.75438 0.256217
61.3394 1.15736 0.0816454
45.4032 2.28271 0.165425
66.9671 3.33339 0.24923
91.1493 2.91209 0.190405
46.326 1.32826 0.0946436
66.2054 2.83581 0.22185
49.3996 1.08359 0.081572
54.2123 3.23379 0.244134
35.8034 1.69507 0.160952
109.867 3.90735 0.307741
40.5349 2.01122 0.165076
47.9917 2.62707 0.215797
79.5213 3.38003 0.259311
84.03 4.87605 0.458608
58.1853 1.80081 0.139866
45.0067 3.03109 0.246992
52.0585 3.01239 0.280946
32.5204 1.37758 0.136318
43.514 1.05832 0.105549
38.9165 2.35453 0.212084
34.9357 1.00926 0.0826857
30.6451 0.592198 0.0567316
55.6188 1.29544 0.130927
28.4871 2.66057 0.239376
40.2776 2.24578 0.256573
29.0072 1.31593 0.128185
39.5471 3.22451 0.336234
46.9599 3.04862 0.302291
41.5024 2.72714 0.304259
86.5091 5.35263 0.541139
60.4165 2.03174 0.225682
19.4896 1.17691 0.155025
74.0882 5.70838 0.575987
40.6219 3.34661 0.421427
57.4759 2.11078 0.21155
47.907 2.92012 0.338984
30.9462 1.52002 0.167028
55.2895 2.60518 0.299689
39.3629 1.77813 0.236924
23.6259 1.95224 0.267055
21.7937 1.07945 0.118466
46.0111 3.25761 0.399118
52.682 2.60926 0.316073
41.8556 1.98872 0.259529
58.5804 3.98341 0.478295
37.5049 3.9985 0.54368
26.8277 3.04691 0.39864
21.202 1.13838 0.149855
27.959 0.84009 0.107559
37.9165 2.26068 0.294601
32.4079 1.53962 0.212511
24.3226 2.93945 0.415211
28.4856 1.58421 0.228375
21.5831 1.55755 0.266346
14.4122 1.39434 0.176186
21.1897 1.95722 0.28653
21.1729 1.84742 0.272065
22.0062 2.01662 0.285929
16.7671 0.979957 0.144863
26.1443 2.34597 0.399454
30.7732 2.42575 0.323656
37.4354 2.72614 0.373408
29.9382 3.10033 0.520786
16.3379 0.846187 0.138029
22.4889 1.08824 0.1831
24.2107 1.08708 0.190174
25.7505 1.6527 0.26168
40.0324 4.41363 0.749909
43.2079 4.84957 0.797309
31.4894 3.11398 0.55379
17.1064 0.978736 0.113343
31.4551 4.10094 0.681794
29.6841 2.49582 0.456664
26.5299 1.5994 0.316835
34.1263 3.31786 0.609501
19.9733 1.66256 0.249684
24.0879 1.84372 0.345032
19.1094 2.67392 0.496556
24.284 2.34497 0.369027
24.0721 1.69368 0.330325
45.1583 6.02935 1.25168
37.2198 3.93811 0.689987
23.5911 3.14787 0.601789
25.7059 1.69158 0.314942
23.7197 1.13431 0.239172
22.8067 2.05072 0.378211
26.9863 2.32294 0.473355
17.199 0.776369 0.150254
24.0353 1.33655 0.278511
12.1721 1.16515 0.277009
20.0794 2.25159 0.438782
21.8194 3.06188 0.661358
22.7665 1.16326 0.267928
30.9135 2.98155 0.721681
22.0361 2.7331 0.516645
21.4643 2.13406 0.48535
31.7432 5.11297 1.08481
12.8524 0.857595 0.21045
6.97196 1.56808 0.335688
25.7417 2.71361 0.637856
19.4786 1.45707 0.313357
13.738 1.80335 0.418873
15.0398 1.10312 0.247109
13.67 2.22436 0.52244
18.7275 1.61927 0.393067
19.3942 2.6473 0.670951
10.7762 2.51841 0.59539
19.5596 0.902592 0.212846
16.8667 3.02387 0.782522
22.6458 2.82944 0.66441
21.3318 1.6212 0.406794
15.9643 1.53947 0.337626
11.7217 1.43301 0.337356
15.4685 2.66201 0.743544
20.2281 2.37649 0.649454
12.34 1.08076 0.206401
19.8934 5.29802 1.35285
23.9075 1.20026 0.307701
16.4275 1.03587 0.318538
8.01369 0.626486 0.16716
13.3937 1.66345 0.4545
23.71 4.83322 1.23267
16.1218 0.908964 0.278883
18.1954 4.79675 1.2978
10.4261 2.18211 0.723583
18.5534 2.00232 0.505384
23.1524 2.96451 0.787794
6.26725 2.01387 0.605213
14.5406 1.41035 0.354861
36.1601 6.67433 2.10158
24.5709 3.19629 0.750811
24.7157 4.59798 1.42093
20.6159 2.87791 0.912267
26.4798 3.38231 1.1042
12.6787 1.68124 0.446543
19.2035 4.17116 1.1712
15.3195 3.48718 1.11327
16.4108 2.11896 0.711496
21.3214 3.74138 1.15556
18.6218 4.07077 1.29519
8.35759 3.13272 1.07244
28.5736 4.06038 1.22424
13.7091 2.45174 0.846806
21.2355 4.57739 1.49385
10.3448 1.62249 0.473165
11.4696 2.08284 0.705575
6.95623 1.22531 0.36297
18.0642 2.22761 0.607421
15.608 2.37119 0.839838
15.5491 2.40599 0.759256
6.74496 0.761448 0.276365
16.4786 2.34874 0.88532
13.0138 2.53578 0.789121
15.0413 1.55922 0.533385
16.9619 2.54189 0.885229
13.9235 1.16451 0.517493
12.4507 3.06956 1.11703
16.6736 4.87477 1.65669
10.3005 2.2467 0.812101
14.7784 3.239 1.27759
11.2234 2.66387 0.806138
15.4745 2.98277 1.06582
8.94965 1.08369 0.564551
6.20458 1.32923 0.583457
14.1344 2.79895 0.92072
22.1722 2.98906 1.23785
12.2943 4.38607 1.66079
14.1612 3.52229 1.38576
24.9814 6.34207 2.27314
8.17578 1.16478 0.530001
12.3097 1.93731 0.753757
9.53818 2.69793 1.13034
11.6725 2.23955 0.726854
16.6202 4.49747 1.60877
14.852 5.68409 2.24102
12.7819 2.88276 1.17638
6.72112 2.1569 1.0252
27.5546 5.80923 2.06029
17.5932 4.26773 1.9702
13.6092 3.53335 1.44326
8.49936 2.14173 1.12635
15.9071 6.96048 2.71477
13.3355 1.01406 0.370569
16.2748 2.83472 1.10454
8.40874 1.55144 0.823595
10.1802 2.17915 0.929878
14.8214 2.66996 1.22735
8.77492 0.582329 0.211709
14.027 2.79508 1.15907
12.2398 2.82332 1.24334
9.15961 1.20035 0.833513
14.3013 4.12978 1.50683
8.16686 1.59012 0.682814
8.9675 1.38375 0.779679
12.0172 2.74946 1.25744
10.2515 3.07093 1.64753
10.6108 2.24023 0.7192
8.74642 2.09021 0.993307
11.946 3.8064 1.84713
9.77109 3.05081 1.51026
16.8879 4.90302 2.09672
8.08003 1.95341 1.09155
6.99769 1.46447 0.576992
9.87059 1.77085 0.830392
10.9489 2.95556 1.30995
8.43411 1.08049 0.662837
8.11077 3.12573 1.54801
8.95421 2.12147 1.06447
5.92665 1.42529 0.60605
5.80353 2.24634 1.07833
12.1694 2.23195 1.1923
8.10716 2.82664 1.6021
9.28133 1.23066 0.653536
5.02411 1.13862 0.476914
5.55479 0.594715 0.281288
7.95579 1.80426 0.967339
6.8985 2.50366 1.13267
9.87825 1.39519 0.761297
11.2128 4.86698 2.58265
6.86151 1.01541 0.505994
10.0002 4.30927 2.15591
11.5183 2.87662 1.44489
3.81673 2.2442 1.08576
9.44077 2.50011 1.40975
8.54256 1.94259 1.03844
6.35341 2.09628 1.05893
7.16474 3.25022 2.29066
13.4832 1.80569 0.768938
9.47194 1.40058 0.928916
14.1722 4.68479 2.36815
6.97511 1.68064 1.14429
9.83387 2.98195 1.72588
12.4397 4.56179 2.30226
8.58373 2.18793 1.42878
18.4836 8.66568 4.7877
8.2257 1.92113 0.919711
10.2687 3.86521 2.36612
6.29605 2.06627 1.14829
13.5948 3.93084 2.13699
4.34525 2.05214 1.23767
7.04927 1.67102 1.15059
7.34833 2.13955 1.40193
14.2749 3.95713 2.08109
4.01199 1.04514 0.649184
10.2823 4.35566 2.58959
4.26675 1.35679 1.35141
10.3053 1.56537 0.602135
10.9976 3.41792 1.90051
9.00934 4.75614 3.09905
10.5511 2.13065 1.49386
8.63202 2.79768 1.43041
6.10233 1.58639 0.991532
6.99646 3.56657 2.49548
7.49481 2.46768 1.28252
6.80921 4.35685 3.08424
9.33168 3.39826 1.76192
3.82858 1.19804 1.02486
6.83614 0.503973 0.366427
9.08595 3.3162 2.03421
3.69196 0.874211 0.648432
6.15954 3.2381 2.14615
6.95556 1.49483 1.15129
8.67197 2.6301 1.64131
6.0671 1.94966 1.07514
6.66163 2.87918 2.15198
9.05399 3.49985 2.31765
4.90093 1.49663 1.24391
9.07689 4.01375 2.77871
11.3205 3.87965 2.04183
5.41268 1.39092 0.810219
8.71118 2.6623 2.01141
8.20225 1.15078 0.761567
2.99384 2.05514 1.60859
6.23867 2.20663 1.21726
4.16641 1.37404 1.21866
5.90194 1.17778 1.01232
6.22431 1.1914 0.743243
7.7893 1.43773 0.81679
7.68909 2.11501 1.60857
8.74914 2.57807 2.08824
6.79124 3.47559 2.24969
4.93127 3.06698 2.84753
7.89589 2.74382 1.39555
5.9456 3.37253 2.79646
8.30889 1.90292 1.32538
8.51733 3.85617 2.50886
3.91812 2.32914 2.22491
5.94576 2.28139 1.76355
6.98282 3.05229 1.99395
6.79865 2.75859 2.21647
4.44727 2.33017 1.48993
5.46723 1.514 1.50346
6.24932 1.20968 0.543591
6.26121 2.13205 1.67349
6.01942 1.49879 1.04657
5.18824 0.913635 0.758986
5.45532 2.55572 1.99255
5.48802 1.50071 1.36659
7.6349 1.63124 1.44014
7.53392 2.70057 1.53851
3.6274 1.09729 1.00348
5.64095 2.20013 1.7817
4.61628 1.6584 1.68102
6.51397 1.74293 1.31949
5.69696 2.49736 1.63154
6.98211 3.53737 2.80688
3.29793 3.34067 2.53851
3.49696 4.03256 3.93824
7.94811 2.17086 1.34483
4.70818 1.38666 1.05058
7.77042 2.71162 2.58813
6.62901 2.19914 1.70165
4.9026 2.91866 2.36507
6.09379 1.61304 1.28573
7.56777 2.06203 1.88935
8.41304 5.39292 4.21996
3.17349 0.937032 0.935958
4.73013 0.890504 0.81446
3.16414 0.815728 1.09556
7.57312 4.1177 2.67343
6.36365 3.14799 2.87547
6.21505 1.45362 1.44607
9.93743 3.72066 3.34546
5.59622 4.13093 2.74415
3.34969 1.60409 1.68206
3.86779 1.92517 2.68588
13.8388 7.66473 6.51238
5.61416 2.51676 2.03671
5.19471 2.62225 2.1561
3.56053 1.78493 1.34239
3.15338 2.89049 2.90691
4.65159 2.45128 2.26034
3.56292 2.38123 2.44918
8.07599 2.11895 1.6623
4.48075 1.58683 1.61225
4.98803 2.34668 1.71254
2.87662 2.97201 2.7251
4.91599 2.15137 1.73886
6.6101 3.73847 3.97896
8.31252 3.16159 2.23777
4.87471 1.60369 1.34724
8.81659 6.3585 6.27129
3.47677 1.66248 2.45997
9.04954 4.21012 2.40869
7.08237 4.03733 3.83601
5.35497 2.26699 2.85034
3.44738 2.60475 2.10045
9.66382 5.95992 6.36287
5.16712 2.53174 2.35804
3.28311 2.35759 2.6941
3.35996 2.31313 2.5763
7.95633 3.73906 2.32463
6.57377 3.28765 4.10749
3.78716 2.5845 2.34832
5.68134 3.39892 2.87514
4.07263 1.5232 1.43143
4.456 1.84913 1.91128
3.3336 2.03344 3.54192
6.59862 1.97188 1.215
9.23685 7.45564 6.153
4.46864 2.63253 3.17669
4.548 1.36652 1.60664
4.63369 1.53991 1.80126
7.19471 2.88813 2.53819
8.5486 4.95491 4.63761
4.17241 2.59333 3.08054
2.13378 1.1069 1.11953
3.34041 1.85114 1.81115
5.82239 4.0468 4.75219
6.85364 2.80348 2.67129
7.05941 4.06507 4.22777
5.10116 3.23594 3.09488
4.24306 1.65125 2.58421
2.63409 1.37232 2.19125
8.30536 7.76425 6.64085
3.2765 1.6684 1.88365
3.85983 1.30019 1.55249
10.4825 4.47989 4.53789
3.02256 2.44599 2.64147
1.83916 1.24172 2.42507
4.95067 2.12249 1.08846
3.98196 2.48599 2.84969
4.63396 2.5801 2.90268
3.36067 3.71764 3.95569
3.51005 0.962419 1.19673
4.67978 1.07005 0.690159
3.52952 2.61139 3.05829
2.78404 2.42349 3.10439
5.07342 2.6866 3.23077
8.6658 4.88016 5.2234
5.70077 4.79992 6.34011
4.89254 5.18196 4.84474
4.25825 2.11378 2.79822
5.10316 1.76575 1.71296
3.31034 0.890294 0.857243
6.38785 2.42684 2.73295
5.44574 1.55052 1.92004
3.62128 2.34821 2.522
5.05742 4.56023 5.854
2.29804 1.05471 1.15524
5.06801 4.98508 6.06681
7.11795 2.99602 2.62879
2.48406 1.34948 1.34243
5.01411 5.76622 8.53763
7.82073 3.90099 2.57772
3.91945 3.27697 4.06825
3.21622 2.90137 3.8948
6.19736 2.39559 2.98843
3.52547 2.15219 2.50493
5.67989 1.72135 2.79191
3.43389 0.839808 0.581419
2.59675 1.07494 0.984316
2.27595 1.10362 1.6062
2.63056 1.65205 1.60636
1.72989 0.377296 0.955756
3.50341 3.29317 4.55871
5.47033 0.910665 0.987489
5.33775 5.06253 5.39563
4.18987 2.93678 3.90357
3.98547 3.04941 4.28217
7.51744 5.03613 5.03827
2.93379 2.06874 2.81646
4.43985 2.472 2.70241
2.07431 1.41242 1.915
2.53372 0.584567 1.36233
5.74949 2.99267 3.21623
3.20898 1.51081 2.4737
4.57802 1.47178 1.54883
5.60903 2.80907 3.95527
2.35235 2.47423 3.12951
3.94049 2.93434 4.21363
3.40319 2.8192 3.52451
3.85981 4.59267 5.73624
5.91823 2.35265 2.5181
3.83068 2.10127 2.42318
3.02291 2.69741 3.76753
3.37244 1.74426 2.90732
2.78091 3.75597 4.3952
5.20509 2.96208 4.26848
5.9275 3.78924 5.27261
3.55395 2.32529 3.39091
4.48648 4.23651 5.98514
5.00499 2.95794 2.65403
1.27784 1.4332 3.42187
4.64939 3.49958 3.60691
3.34715 2.44243 3.57662
3.28893 1.76061 2.05997
4.18082 2.57598 4.15674
3.05869 3.99107 6.35672
4.05569 2.87919 3.11554
3.08698 1.82318 1.64887
6.09718 6.14745 8.10935
5.68151 2.12952 2.22548
3.55139 2.35306 3.78259
7.44154 6.10736 8.68281
5.35519 3.48521 3.57652
4.04827 2.33998 2.98949
4.03374 2.04811 2.93878
2.80905 1.52695 3.21679
1.40701 1.36515 1.59258
2.74113 2.59813 4.64154
5.01238 3.46371 3.02821
2.95743 4.8087 8.76387
3.89521 0.836204 1.56352
4.17947 4.69898 4.88226
3.63434 3.22052 6.22191
4.89745 3.40892 4.15043
2.71658 2.78425 4.87121
3.00665 1.84045 2.3712
3.85068 2.70473 2.82677
5.47325 4.58541 7.63793
5.06817 2.01465 2.4684
5.07397 3.6651 4.15351
2.09175 1.55597 3.44805
2.56117 2.79998 4.34827
1.97766 2.3136 3.46901
5.35503 2.92963 4.65248
5.54171 5.22278 6.11366
1.95462 1.51534 2.52642
2.33935 3.46384 7.59785
7.73947 6.97816 7.97759
2.68085 1.69895 2.26876
2.3047 1.56477 2.48336
3.88865 2.31832 3.55784
2.79665 2.67774 4.95234
1.52438 2.06437 2.1278
2.10237 1.51112 3.00967
3.73606 1.628 2.26132
4.35933 2.95416 3.25488
2.84812 1.97983 2.80178
3.64358 2.69583 5.64298
2.35133 1.84076 1.34173
2.05798 2.8212 7.89111
7.06726 7.72586 6.29857
5.11373 7.50903 13.5957
3.51775 2.03551 6.75401
4.70217 3.0114 3.1578
3.85296 4.64078 6.94289
3.22656 3.18375 4.13096
3.40475 4.77149 5.85342
2.17581 1.62422 2.93198
2.1538 2.58746 4.55134
4.93669 2.51682 3.12757
3.06082 3.80295 6.16904
3.50407 4.69024 6.62112
3.53091 4.24483 7.15889
3.0351 1.3735 2.81502
2.36572 0.952343 1.48361
2.34955 0.593717 1.3507
3.46382 3.4587 5.7557
2.60729 2.01003 3.91239
5.60493 4.89358 5.37285
3.68827 3.60866 6.49051
2.26625 2.30293 4.50047
2.47801 2.37012 2.83393
1.80615 3.15513 5.94
3.35591 3.44733 7.62885
7.75525 6.76891 8.1213
2.39639 2.71886 5.04269
4.10715 4.40228 8.43343
5.23102 5.07908 8.17102
2.91594 4.87651 10.972
5.47008 3.68534 3.41304
3.46305 3.73418 6.75841
2.4105 1.88157 2.8855
2.36192 3.09399 7.1349
2.82571 1.99622 1.59295
1.51316 1.13501 1.68161
1.99983 4.35975 9.06169
3.46902 2.48296 2.04973
3.23235 2.76137 4.78644
3.15785 3.9953 8.34945
3.61414 3.18449 3.77625
2.1247 0.89808 2.68065
2.75154 3.6499 4.99475
1.95532 2.48896 7.47295
3.91256 3.52894 4.95336
2.239 0.95035 1.79289
3.41422 2.24835 2.19905
1.71965 2.0709 4.72424
2.90174 4.87713 7.04352
4.54298 5.9242 10.3376
2.11933 2.77482 5.97489
3.25936 4.31589 9.37546
4.36409 3.23382 4.13907
2.47589 0.934866 2.51693
4.53301 2.82969 4.24195
1.36117 1.83462 2.64679
3.51591 3.75709 5.97916
1.51515 3.87732 9.1425
2.56296 1.52553 1.55023
2.8185 2.59434 5.31493
3.2902 1.96006 3.85992
2.35207 2.24096 4.95976
3.59498 2.68102 4.30011
2.2163 2.82549 5.00644
4.15895 3.80836 6.17598
3.10284 2.29996 6.05158
3.87954 4.99249 5.3955
1.60051 2.0523 3.1397
3.81077 5.60871 9.23757
2.96008 2.90228 5.01532
2.70297 4.36901 7.94771
2.85997 2.03533 2.97008
2.13755 3.29248 8.59862
3.47792 2.98861 3.71041
2.32907 2.82686 7.57268
3.90015 3.84287 4.54112
2.54287 2.58963 5.55797
1.9312 1.53184 2.92112
1.65063 1.39786 2.89025
1.71042 1.22543 3.1697
3.47975 3.86005 5.18426
1.99798 2.79268 7.33495
2.49246 2.13128 4.67707
1.61669 1.00647 4.00249
3.45429 1.67089 1.52098
2.16034 1.69472 5.80568
2.77394 2.7044 4.87553
2.42062 2.28825 5.0013
3.7717 4.75496 7.08008
2.53728 3.13684 5.29468
3.64271 2.83264 4.33041
1.26113 1.51266 4.8928
2.18428 2.70365 4.84074
1.60752 2.29446 4.05813
1.25382 1.37914 4.43371
2.44115 2.92074 4.34469
2.06119 2.53126 3.90695
2.2653 2.85155 5.49978
2.58015 2.90368 6.32354
1.63647 2.04257 4.00182
1.62131 2.27915 6.05566
3.67741 3.24326 5.44307
3.78335 1.16469 2.84732
3.13862 4.76933 9.0527
2.48797 1.82358 3.24608
2.34546 2.07017 5.70549
3.41252 1.99731 4.56266
2.80939 2.25313 3.66459
2.9275 3.73611 7.32848
2.19362 1.91294 2.57165
1.78402 1.45491 4.20913
1.33106 2.70921 7.00631
3.19922 3.43636 6.79803
2.52686 2.27707 4.25012
2.32446 1.07059 2.37977
2.66968 3.0332 6.13055
3.17239 2.9298 5.62561
2.70781 3.2736 8.99277
3.90465 4.43824 7.64577
2.34352 3.34941 6.47826
1.77443 2.42127 5.53263
1.56469 1.69102 4.45648
1.93734 1.4159 2.95354
1.87799 1.69435 6.95159
2.46363 2.49594 3.10458
2.77673 3.58522 7.32334
1.91399 1.44157 3.45882
2.35079 3.59593 6.04699
3.24398 2.137 3.48332
1.35786 0.743576 1.82409
1.09747 1.09585 2.18956
1.84569 1.82879 3.74231
2.5097 3.31164 9.5874
3.88875 5.85624 10.8364
2.20036 1.12331 1.46255
1.88095 1.864 4.18299
2.67131 4.15881 12.5724
3.9369 4.6349 6.06287
1.15799 1.6924 4.65502
2.66638 2.05362 3.49489
3.05431 2.45456 6.24656
3.47233 2.39874 5.59145
1.15072 2.80833 5.95365
2.14202 1.59682 2.9296
1.96849 2.32314 6.38694
2.78722 3.46684 6.08096
3.38645 2.89293 8.67127
2.35463 5.01699 7.70306
2.02111 1.50356 3.81605
1.77542 2.08613 5.01129
2.69245 2.5318 7.07178
3.31803 3.11234 5.62664
3.64131 4.34839 8.99891
1.70611 1.85449 4.28501
1.41592 1.1642 3.35763
2.68136 4.51064 11.2822
2.49209 4.00523 5.5912
2.10018 1.90289 5.11694
2.32578 1.41565 1.60427
1.25463 0.860141 2.88258
2.14226 4.22485 12.3452
4.26806 4.11653 11.4381
2.3451 2.82885 2.68217
1.63318 3.95019 5.51818
1.68942 2.19555 6.06956
2.31447 2.2104 10.1047
5.15766 7.67634 12.8108
1.98082 2.93316 7.69522
2.56947 3.26978 6.51448
1.96583 2.4937 6.37214
3.10861 1.79208 3.09692
2.19852 1.36788 2.31091
2.94328 2.49704 7.00191
2.8477 4.13555 7.18225
0.729383 2.39497 8.11516
2.65101 1.44265 2.69605
2.34952 1.65349 6.40662
3.11853 3.10535 5.88006
2.84458 5.63296 11.0404
2.12459 1.75007 3.04967
0.976115 1.11208 1.98378
1.34235 1.78084 3.02644
1.35641 2.77063 8.1214
2.36244 1.40546 2.96303
1.93435 1.31542 5.62562
2.27981 3.15734 6.5891
1.51152 1.58865 3.09011
1.26172 1.97449 4.271
1.17268 4.13986 9.90774
2.45879 2.33202 5.6421
2.72899 5.01633 11.3149
1.32216 3.61463 7.32541
1.5876 1.64503 4.76553
2.05273 2.29645 5.35869
2.05304 1.06962 3.50211
2.35239 2.50911 4.21566
1.55652 2.5407 7.56733
1.91702 2.54372 6.38069
2.46004 3.25875 4.74683
2.30502 6.20305 20.6168
3.33377 3.84674 7.39168
2.37633 2.75651 8.53579
3.93471 2.16598 2.95069
3.03139 7.91753 20.7315
2.57358 2.18428 4.32201
2.21385 2.50999 3.24289
1.53511 4.402 12.6883
3.03447 3.46285 8.62081
3.39202 2.83344 10.8627
3.84064 4.73943 7.87961
2.01753 2.06945 6.22353
2.86477 4.80081 8.11627
0.844672 2.14219 10.3963
3.01142 2.11759 7.06369
3.61347 4.84472 8.7094
3.60222 6.07179 12.0605
2.87871 2.39795 3.40157
2.01916 2.97691 6.69916
1.07232 1.42459 3.68249
1.77187 3.84451 13.8484
1.72573 4.74342 11.4035
2.84383 1.85656 4.54006
1.33822 3.5626 14.2849
3.49266 6.51893 11.2323
1.70685 2.96799 7.64367
1.61009 3.05335 8.03455
2.21352 1.61391 3.83179
1.55226 1.16321 4.51584
2.63518 2.20689 7.61366
3.32665 4.30449 6.50794
0.960051 0.900466 4.10271
1.97437 2.16458 3.50152
2.32012 1.71222 4.63526
1.03687 1.31081 5.50141
2.27065 2.38637 6.03803
2.19572 4.96419 9.06193
1.53604 3.42897 11.0525
1.90971 1.70895 5.99851
1.75372 2.36773 4.08472
1.24991 2.5012 4.78897
2.27587 3.03577 11.9602
2.00104 3.64165 10.4962
1.5616 1.23071 3.47924
2.25305 3.42015 4.33936
2.07142 2.64706 8.93538
1.80248 1.94788 8.33208
3.02989 4.05441 6.37816
1.20993 2.33686 7.02647
0.792613 1.80442 6.29144
1.80665 2.71541 8.25343
2.41434 6.31181 15.0622
3.81729 3.41715 6.25447
3.50794 3.71496 6.02719
1.64673 5.48792 17.7624
1.35272 1.56235 10.8768
2.77687 5.70505 8.75355
0.907236 2.5662 6.32244
1.90175 1.51511 10.3119
3.97731 7.50126 11.4304
1.67151 2.16676 3.58079
1.42589 3.29996 10.0847
1.35297 1.62905 6.02989
1.98065 2.61097 5.15123
1.87237 2.35847 6.8094
2.24189 6.26502 14.564
2.46295 3.36666 11.8955
1.97771 2.04872 6.27741
1.8024 2.87633 9.44626
1.93616 4.20188 6.6281
1.45356 1.82814 8.90942
3.26483 3.20883 8.37845
3.48172 5.43074 14.0845
1.37377 2.13497 3.87873
1.04891 1.57249 6.32165
1.70116 3.08411 5.36915
2.09717 2.6352 10.8048
4.90559 8.70591 18.7482
2.71279 3.19865 13.3109
2.47624 5.38949 10.3208
0.855206 2.43307 8.14391
1.91042 5.55642 22.2563
3.56714 5.11946 11.4199
2.35831 4.82467 13.9548
2.672 5.95856 13.4438
1.89458 2.25862 4.47178
0.776213 0.992781 4.97796
1.67391 2.26117 9.6399
2.09852 2.11869 6.58891
1.8654 2.04648 3.7982
1.99009 2.89178 8.44562
2.27337 4.0349 12.3358
1.95302 2.97921 5.50318
1.60401 1.64804 3.40389
0.960036 3.01158 8.30881
1.77232 1.68894 5.79968
2.63571 5.61616 15.5832
2.96928 5.60921 19.4938
2.98564 3.26168 7.95269
1.83021 4.70712 10.6917
1.64295 2.19546 6.61433
2.00684 7.57787 18.9803
2.44481 1.07345 6.29543
3.67947 7.67867 18.6368
1.54254 2.2398 5.49603
0.73305 2.37213 5.93457
1.97818 4.03071 14.9307
2.11737 3.42682 8.83003
1.82885 2.80157 5.3788
1.94783 2.96643 12.3874
1.57832 4.17484 7.73549
1.65265 2.23052 6.41971
1.36468 1.81744 6.69079
1.40502 2.46691 7.5956
2.14071 4.59328 12.7734
2.61918 3.51928 10.2659
2.65389 2.12054 5.08184
1.64059 1.54899 5.94071
1.08001 1.93135 7.79203
1.94671 2.9054 11.2604
2.38946 3.8963 6.63177
1.85747 2.66048 7.97296
1.21276 2.49813 9.64349
1.76727 2.82361 6.08618
1.52736 2.99324 12.0376
1.48576 2.77138 5.95906
1.75483 1.56638 6.51967
2.27296 2.84391 8.41934
1.87226 3.60123 9.37648
1.59134 2.55428 4.38647
0.507451 2.86054 11.572
2.63015 1.9475 2.69015
1.26596 2.61162 8.28559
1.7108 3.38144 9.56131
1.66761 3.33894 7.25152
1.43635 1.82029 6.25761
1.54237 0.763853 2.01104
0.818846 0.537548 2.13887
1.04465 1.98669 3.81928
1.65704 4.20007 15.0901
2.67054 0.763872 6.10638
2.06756 3.64559 8.04222
1.36555 2.28476 9.91225
2.33414 2.60337 4.34681
1.90285 2.13769 6.68094
1.39876 2.92363 13.9219
2.44796 6.01477 13.465
2.31103 1.98034 8.176
1.7862 2.94654 5.60966
1.52362 1.87905 3.3434
1.41101 3.95166 16.1272
2.51241 1.09297 6.26243
2.62642 3.6328 4.87199
1.72757 2.7743 7.03758
1.3744 1.52706 6.28471
1.26753 3.68052 16.5823
3.10583 3.3236 3.85754
0.846541 1.07705 3.79618
1.95353 1.53502 4.48101
0.761056 1.38703 6.96587
1.52524 1.8212 6.55421
1.0481 1.26378 7.21153
2.20962 2.90599 8.07024
1.24905 2.01593 6.19215
1.41456 1.03256 6.63628
2.60882 5.36067 13.082
1.99302 2.07235 4.46908
1.68748 3.65935 5.95436
1.15875 4.27531 19.133
1.94333 2.53509 9.38274
2.75658 4.89054 15.0188
1.14677 1.81133 8.47279
1.711 2.02091 5.33568
1.20596 1.70143 5.35421
1.26547 6.26316 14.1126
1.28705 1.53019 7.16842
1.80297 3.75141 10.5697
1.94147 2.69777 6.50383
1.45282 3.42669 15.6126
1.90912 6.11563 13.1968
1.64383 1.85264 6.13786
1.28287 1.39388 4.74975
1.45746 3.75649 11.4685
2.02282 2.67785 6.40731
1.64782 2.7907 11.6078
1.65568 4.49612 13.9257
2.11892 2.41455 5.1418
1.96787 3.62179 11.4811
1.8199 2.45906 6.97794
0.677647 2.24342 5.73264
1.79488 2.55686 9.71405
0.526926 2.62351 12.7555
2.45779 3.40487 10.4651
2.14672 6.86836 20.7725
2.57111 4.60254 10.8196
1.78206 4.14509 12.3493
1.74592 1.28813 7.38597
1.92761 1.62581 2.97811
1.50843 1.83546 4.71399
0.894219 1.51698 3.80801
1.41652 1.09636 6.23418
2.00162 2.42951 8.02808
1.26683 2.45993 11.4234
1.90535 3.82354 7.11766
1.12329 2.09111 8.26681
1.72464 4.12 12.5253
1.71133 1.42249 3.1446
1.16866 1.65916 7.41062
2.21268 1.72357 4.25726
0.531076 1.55425 5.57581
1.37312 1.4592 5.69056
1.52668 1.93745 4.28371
1.21454 2.53725 9.65396
2.45905 4.05018 13.0156
1.60896 1.95902 8.47674
1.89108 3.77278 14.5878
2.74077 7.1186 24.0388
1.90357 3.69797 11.4225
1.77326 3.21671 5.07495
1.22507 2.746 7.89524
1.35549 1.93218 12.5745
2.20519 6.02788 15.8415
1.48282 1.63699 3.73903
0.937008 1.16831 8.58554
1.57688 2.13212 3.7882
1.74893 3.59229 15.3599
2.40707 2.02549 2.25832
1.39769 2.05594 8.95278
1.21834 4.21279 17.7368
2.22841 3.87114 7.33268
1.41764 3.17 8.35469
1.41115 3.27771 16.7999
2.75827 5.90936 14.9907
2.31968 2.29858 8.46854
2.18678 1.80234 3.53506
1.34849 3.93382 15.7052
1.41754 2.13603 6.25433
1.66708 5.52666 17.5137
1.6012 2.76696 8.2949
2.18035 2.70354 7.56851
1.4953 3.58699 10.3851
1.33444 1.33266 5.85753
1.32794 2.63642 16.8761
2.19747 1.74373 7.39355
2.4464 3.20816 7.65035
1.83113 2.31319 5.91051
1.80173 2.2497 9.11692
1.36574 1.57361 4.9822
1.46779 2.16073 4.86089
1.16711 2.38267 12.589
1.93666 2.84525 4.66107
1.42324 2.89071 14.1606
1.91243 1.75449 5.30735
1.77322 1.92335 9.84445
1.59317 3.65197 12.8685
1.32866 4.21074 12.0941
1.02414 3.35774 9.31097
2.02117 6.1177 12.7081
1.66779 2.14148 13.5393
2.44066 2.47418 4.36909
1.39853 2.07018 7.27274
1.31312 2.34713 14.5831
2.30467 8.66959 22.9031
2.04948 1.99317 10.1591
2.62827 3.17392 14.8831
2.68283 4.96158 14.5876
1.41363 2.98279 9.67482
1.7694 1.16501 5.27532
1.30603 2.71128 8.6966
0.909859 2.0082 5.60478
1.1513 2.32055 5.10259
0.769734 0.994697 5.36
1.17036 1.47991 5.92204
0.902447 1.91004 6.95874
1.3529 1.53286 7.92851
1.50799 3.4285 8.54238
1.24197 1.12041 4.79062
2.11461 6.96802 28.6406
2.25494 4.52269 4.79432
1.09746 2.7554 9.49415
1.30848 2.17405 13.7221
1.65166 2.7464 10.9035
2.34675 6.14358 15.063
1.27912 1.23056 13.9093
2.88917 3.18857 4.64756
1.76083 3.978 10.1069
1.19064 3.48994 10.3242
0.477735 1.25833 14.2323
1.83703 3.02042 15.3858
2.41024 6.33056 12.6897
1.85504 2.47126 8.526
1.71092 4.70805 16.1792
1.83758 2.0406 4.68499
1.1517 4.44925 12.5675
1.42243 2.24392 14.5891
1.6185 3.57862 11.6821
1.48955 5.08553 19.0231
1.72411 2.51639 12.8384
2.27335 5.46845 16.7069
1.332 1.64809 8.61846
1.63558 3.13117 15.5204
2.50693 4.5948 8.50751
1.49573 2.69894 12.8161
0.977263 2.66153 12.2046
1.88748 4.27243 10.6567
1.43612 1.7001 4.35893
1.54585 4.64736 19.1163
2.05397 3.19622 10.8705
2.13175 4.64387 16.7653
1.16314 2.62792 6.1519
1.04756 1.00698 9.75276
1.69371 2.69619 5.58162
1.63671 2.20648 5.85467
1.2587 5.79073 26.1845
2.50776 5.40301 13.8446
1.9782 1.86656 12.7872
1.70102 4.3275 9.22995
1.39535 1.90613 7.64895
1.54573 1.3562 6.95858
1.20665 1.84933 7.74158
1.40806 2.32139 9.57089
1.41496 2.31712 10.0432
1.25162 3.3897 9.87797
2.18697 3.19785 5.62759
1.17397 1.8726 7.61895
1.39636 3.45639 11.1299
2.38898 3.77366 10.6079
1.27882 2.38146 9.98722
1.09122 2.18888 2.98893
0.67544 2.6548 11.2677
1.36025 1.28408 6.15668
1.60963 1.31046 7.31663
1.5753 3.64455 11.2086
1.0469 2.02915 8.4793
0.796298 1.96029 7.58342
1.92859 6.10016 19.6388
1.20288 2.89468 10.0736
1.35406 2.14393 6.03928
1.61867 2.55679 10.6145
1.11954 3.35512 14.7129
1.9077 2.27607 9.02348
0.981393 1.61871 5.26627
1.25337 2.93195 8.43468
1.28144 2.07878 8.52545
0.897469 5.33787 17.7028
2.32705 4.18939 25.0503
3.52892 6.09629 14.5841
1.16502 3.5172 12.8097
1.62963 4.3831 18.3854
1.77268 4.32087 7.30959
1.2585 1.53135 4.50642
0.727452 1.58129 9.91038
1.51428 2.07599 7.4609
1.12235 4.01906 19.7876
2.29085 3.21957 16.2161
2.08274 7.80321 14.9695
2.17694 2.8722 10.0539
0.701608 1.9909 13.9358
1.70565 3.54109 15.4547
2.71422 5.31066 13.1261
1.30228 1.64041 11.1024
2.12433 3.81309 15.267
0.905771 2.46392 12.6707
1.41012 3.26588 6.58548
1.17195 2.04038 16.092
2.05782 6.47647 13.9499
1.9298 2.97396 13.6456
1.86949 5.47022 15.9404
1.20297 1.10577 4.42963
1.12242 1.89925 7.85202
0.814775 1.89783 8.28069
1.69331 4.63069 20.1649
1.69186 6.30415 36.7493
3.28982 9.39092 24.6844
2.31869 3.14404 7.83884
0.695891 3.26399 9.48292
1.57964 3.61832 16.1286
1.51957 1.4143 9.02449
2.11443 2.35134 12.9538
1.63521 3.26046 7.3329
1.1546 3.01096 15.8195
1.25601 4.97525 12.5585
1.95099 1.2779 9.28233
2.14647 2.49436 9.4294
1.09075 3.33516 10.9383
1.08513 1.71297 5.46853
1.21153 1.0348 6.53775
1.00631 3.07245 7.1307
1.58513 1.95151 9.51935
1.26786 3.63822 13.3439
1.62247 3.18595 5.98405
0.895341 1.37347 7.81549
1.69416 2.66589 5.84629
0.62293 1.07307 7.57124
1.42688 4.14775 9.00181
1.70489 3.25386 12.0301
1.24804 2.51789 27.5647
3.31858 4.01218 6.75627
1.72198 3.60476 12.2366
1.2096 2.07506 8.35875
1.96362 8.27214 21.4247
1.54642 2.39629 14.5853
1.69503 2.8882 16.2169
2.02055 4.68874 9.35212
0.576857 0.984733 10.6637
1.63982 3.62402 12.396
1.30029 3.4896 15.9938
2.03254 2.18144 5.90906
1.39721 2.34822 12.4767
1.9404 4.66254 8.65313
1.2525 1.5177 6.75441
1.68441 2.57403 10.7834
1.59886 2.65499 11.3801
0.933858 6.1915 28.8708
1.96929 3.20838 6.11099
0.855791 1.34803 7.98991
0.821387 2.34066 9.20253
0.825432 2.13068 17.2193
2.22584 6.04593 13.3845
1.5208 1.76503 5.45516
1.45766 3.86938 11.078
1.03924 1.12439 7.19639
0.896658 5.04613 29.4752
2.08929 3.87588 14.298
1.11814 8.29346 30.2471
2.72735 3.89347 6.88439
0.354736 1.93007 13.6962
1.72706 3.33114 10.5314
1.83364 2.0703 9.5854
1.77701 2.34893 2.99408
0.711977 2.53576 7.05132
0.560095 1.15275 4.37117
0.940848 5.75163 16.0493
1.57339 1.71168 16.8092
2.11045 5.71242 13.4815
1.41077 2.37802 13.5083
1.45172 4.13216 11.544
0.983832 2.56625 16.2796
1.29813 1.8526 8.49216
1.17136 2.94055 6.12505
1.12662 1.62762 9.75181
1.00853 8.83417 57.5128
4.53681 9.56463 8.92396
1.83693 2.06922 8.13571
0.959553 2.61563 7.19806
1.3118 3.72731 16.09
1.40437 3.12821 13.0597
1.65105 3.51431 11.031
1.65935 2.94379 11.2317
1.97345 3.22838 10.0509
1.23245 1.51824 5.57672
0.808454 2.8449 13.0115
1.02847 2.54291 16.6794
1.8989 3.94027 9.04286
1.17136 5.88519 25.2449
1.79404 1.94338 10.051
1.02383 4.44628 13.7744
1.15154 2.71498 14.0632
1.53729 3.01686 5.03674
1.18849 2.71111 10.6164
1.48257 2.02577 10.9353
1.56139 1.20993 12.2637
1.59435 7.09282 15.8719
1.9471 1.10445 17.2001
2.3335 7.37619 14.3624
1.28397 6.4255 19.0182
1.48354 3.37552 15.8219
1.31798 3.75961 19.2292
1.62934 2.05917 12.858
1.85379 2.18342 5.92326
1.27486 2.98038 8.33727
1.29099 2.77102 7.29793
1.6112 7.2013 27.2606
1.24634 1.79248 6.94122
1.09762 1.68717 8.4952
0.876079 1.38583 10.9249
1.84248 1.50661 7.98358
1.23104 8.47344 21.9986
1.81042 2.87563 14.9625
1.96561 3.46828 15.3454
0.986597 3.33445 14.6872
1.98934 1.40651 5.81548
1.07354 3.13612 12.8955
1.20218 2.84997 9.74516
1.24068 4.53034 20.8237
1.11552 2.12968 16.4749
1.6805 4.22293 9.0448
0.7815 3.03875 18.8273
0.876598 3.03227 11.8672
0.871415 5.70924 16.9323
1.84318 4.95967 20.6168
2.19241 3.09928 12.1857
1.84151 4.78304 17.453
0.959642 1.52836 10.4599
1.31289 6.11404 18.1543
1.92054 2.92339 11.3928
1.70485 3.74593 16.1427
1.65237 6.4477 21.7812
2.6881 3.05563 9.9661
1.17731 2.46437 3.92969
1.06613 1.43352 8.48453
1.16331 1.88925 8.14525
1.39564 2.4875 9.02663
1.77254 5.04495 20.7722
2.09025 1.54037 2.97456
0.637607 1.08949 15.0672
1.20619 5.06392 15.921
1.69081 1.26582 14.3057
2.46212 6.51362 13.4737
1.08737 1.74215 7.93698
0.733079 1.41621 13.1034
1.56355 2.01364 10.3198
1.7224 5.14074 10.9123
1.07831 0.56534 2.19858
0.618216 1.44883 7.33746
1.32542 4.84258 19.6058
1.75244 2.68126 18.2004
1.88126 3.56695 8.92136
1.79143 1.28072 4.948
1.42168 6.1535 17.2488
1.31716 2.05717 19.8369
1.66321 3.60571 7.00701
1.09587 2.07897 15.1857
1.55696 4.99396 14.6727
1.30178 4.25349 15.4756
1.87547 2.01742 8.94483
1.30306 2.75809 8.72628
1.2523 5.70858 25.0088
1.4607 2.26801 9.68301
0.614102 3.02799 13.5285
0.785751 1.60258 3.04233
0.928908 1.96974 12.1324
1.19015 1.01729 6.89805
1.08486 4.48318 19.0377
1.96063 6.11438 11.633
0.935477 2.13315 17.1788
1.54313 3.0472 20.1629
1.87343 4.59415 9.36804
1.48689 2.91234 7.60817
1.11877 3.35167 9.45332
1.26533 0.91187 6.32648
1.04078 2.99484 11.0477
0.97257 1.43693 7.27153
0.645587 3.76698 14.0869
1.09247 2.56477 11.6543
1.72454 3.33171 13.2655
1.76465 4.3912 15.1367
1.32349 3.62304 12.0159
0.853652 2.46161 6.0013
1.24869 1.0727 6.82396
1.2322 5.40577 17.0083
2.00971 2.17082 17.3805
1.28373 4.92423 8.06551
1.62469 2.26415 16.7823
2.0511 3.75824 5.60555
1.13659 1.58009 7.96901
0.805857 1.56792 13.4679
0.806414 3.44775 11.7066
1.36323 2.6684 12.1173
1.53446 3.64966 12.8012
1.67275 2.09488 8.93543
1.10466 3.34709 7.80735
0.482488 1.96537 11.7598
1.78723 1.23946 10.4682
0.696991 3.23056 9.03968
1.45588 1.46137 10.1433
1.41119 5.29119 14.4075
1.02188 1.38991 9.17572
1.07161 1.24281 6.17598
0.769574 1.95397 14.8039
1.97982 5.10567 11.863
1.25038 2.84626 9.33449
1.51273 1.08423 7.17443
1.55829 2.69237 10.6317
0.947733 1.37797 13.454
1.04158 6.4041 9.10323
1.09352 1.56839 10.153
0.858993 1.51854 23.4645
1.63263 5.49466 5.27482
0.896747 2.1591 13.15
1.95609 2.01256 6.92322
1.06116 1.91505 6.47784
1.48276 2.58896 26.6518
2.03306 5.43697 11.7887
1.40586 4.75379 23.5359
2.56506 3.4031 3.80743
0.740749 3.46964 20.4679
2.14834 2.56631 5.81291
0.562963 1.28423 12.5141
1.06025 3.43946 15.1572
1.63542 5.13476 6.60332
0.902552 2.35678 12.6979
1.8151 2.97425 4.69117
0.307255 2.93276 19.6814
2.23368 1.60948 4.20771
0.972619 2.75647 14.3063
1.58414 2.01272 3.34155
0.82077 1.80357 8.71903
0.922515 1.05546 4.50521
0.957714 2.59767 10.769
1.09828 1.38095 5.38316
0.842283 1.72354 12.5205
1.70587 2.95378 6.82472
1.44984 1.36425 7.2726
0.849665 1.90276 11.0739
1.44516 2.87607 9.51256
1.67363 3.77644 23.1743
1.82249 2.84537 13.4455
1.66305 6.30952 17.9984
1.24516 4.93797 20.8081
2.2651 4.83857 7.22146
0.760196 4.68452 39.2517
2.73012 3.48692 7.71386
0.79178 3.41862 13.5684
1.72367 4.25399 10.0934
1.47014 2.39836 6.69217
0.950946 1.73083 8.98283
0.665799 2.16078 6.64595
0.917324 1.67341 9.22846
1.15915 3.89319 23.9664
2.72138 3.45327 5.67626
0.557541 3.33484 29.3896
1.4869 8.30044 19.9543
2.60019 4.66266 14.7596
1.83007 2.84126 21.2129
2.53791 6.28141 27.3903
2.23394 4.8871 17.9589
1.97659 5.73414 13.8261
1.76678 0 0