# pn-170911/RbIIA-25-TWTF-1280-1959.psd
# Power spectrum* (dif=0,1,2) (really just |FT|^2)
# NOTE: only the first half! (symmetric)
# weeks: 1280-1959
# 2 clock-days, 2 excluded
# PSD: 1441
716.058 0.118644 0.0191907
116262 3.17671 0.00394828
249080 3.31665 0.00324151
91449.7 1.07589 0.00385521
121810 11.3223 0.00742486
24840.6 0.793493 0.00399314
18788.6 1.10592 0.00524979
23313.5 3.23799 0.00140111
10018.5 1.73188 0.00255838
7504.75 0.855597 0.00365791
5154.49 0.783979 0.00323602
3374.7 3.232 0.00970588
4312.5 1.84443 0.00881687
2959.87 1.05047 0.00764189
5577.19 4.11696 0.0122513
4321.42 1.41963 0.00455127
4588.66 3.44336 0.00180708
1055.68 0.229779 0.00386151
607.728 3.19968 0.00961432
4091.05 2.79049 0.00620039
1329.34 3.78818 0.0123431
913.598 0.328425 0.0055525
2390.81 2.58282 0.0132042
1712.92 1.82904 0.00299912
230.331 2.96868 0.00865055
4350.26 8.1115 0.0404538
438.912 1.12656 0.00321508
2889.93 5.61716 0.0137463
1614.82 2.67936 0.00490101
374.227 0.325866 0.00176639
704.257 0.717051 0.00870793
623.185 1.36304 0.0169374
205.08 2.82106 0.0138633
583.211 0.825896 0.0125452
999.525 3.22412 0.0377194
499.824 0.978676 0.00452702
356.077 0.818097 0.00228661
411.118 5.03959 0.049612
359.928 1.07537 0.00146674
945.328 3.44978 0.027305
131.939 2.17184 0.0213709
203.555 2.24706 0.0265082
403.905 2.85474 0.0431255
412.288 1.46308 0.0249405
86.5621 0.49284 0.00465312
512.616 2.08028 0.0353022
133.927 0.776801 0.0145405
403.817 1.07234 0.0113866
97.8834 0.927333 0.00732568
513.697 1.96367 0.0197384
154.969 0.21128 0.00778822
178.126 1.13755 0.0197434
98.1848 0.445601 0.00426059
236.045 0.560604 0.0104682
180.43 0.95035 0.0317291
244.287 2.37301 0.0187635
398.553 2.25151 0.0315659
316.505 2.99838 0.0262483
258.839 1.00761 0.023822
263.948 1.27766 0.0310465
137.875 0.414718 0.00790831
32.7918 0.510668 0.00727887
68.4159 3.95705 0.0706593
405.238 4.04842 0.068807
45.2084 0.244683 0.00413425
30.1735 2.2578 0.0606875
35.3606 0.553691 0.00651465
183.542 1.6624 0.0203728
197.652 1.31927 0.0449575
36.5433 2.07079 0.031736
149.887 3.84634 0.113208
82.5721 0.463003 0.0256158
80.5652 2.68953 0.0498506
228.061 2.12389 0.0495472
83.2479 0.405178 0.0216499
198.91 2.35202 0.0451924
68.1783 0.590113 0.00892064
53.2166 0.565629 0.00563461
41.3461 1.46239 0.0580029
85.8287 1.5254 0.0314696
101.583 1.44996 0.0247888
62.3661 0.431028 0.013462
98.3475 1.5645 0.0812129
42.8812 2.64196 0.075373
128.844 1.64072 0.0337603
127.683 2.4548 0.0829354
71.6297 1.09344 0.0344958
86.4495 0.601128 0.0319079
34.3328 0.503191 0.0118697
4.3539 0.660226 0.0309549
29.9615 1.9931 0.066791
105.306 2.82424 0.153187
53.6922 0.500333 0.0135185
97.6708 3.56928 0.154183
22.4716 2.04629 0.0730306
125.072 4.11789 0.240437
41.0034 0.824628 0.0183433
169.125 5.12951 0.177032
94.124 2.1447 0.0735071
27.5052 0.437417 0.0233438
141.09 2.88766 0.136031
27.2707 0.96934 0.0408918
38.5457 2.28708 0.115005
45.0875 2.55527 0.114462
154.544 3.08914 0.156192
37.3686 2.01493 0.109368
21.1304 3.17229 0.198784
66.7308 2.27911 0.18223
129.448 3.29583 0.151077
139.442 3.17196 0.159474
97.1216 2.5003 0.128583
116.856 4.41757 0.316942
43.5196 0.447805 0.0332554
42.6423 0.633186 0.0331847
37.0753 2.52165 0.115977
12.7455 1.19636 0.0900332
25.8076 2.10635 0.171924
50.3683 2.70827 0.1354
53.9837 2.29192 0.129073
47.8335 4.45214 0.350447
88.8638 2.14779 0.153339
63.0776 1.84127 0.141506
60.1899 2.07401 0.20699
108.877 3.08108 0.200026
71.5457 2.4314 0.151623
113.457 6.17395 0.383769
35.6716 1.45953 0.0960311
39.4538 0.876763 0.0848675
58.4773 3.40954 0.237142
43.0016 0.927076 0.0862295
59.5882 3.65707 0.322978
43.9088 2.48328 0.190872
33.7781 1.51386 0.173408
28.6435 0.729424 0.0440313
98.8776 4.50087 0.347479
80.1576 3.07889 0.285191
24.2294 2.30752 0.227701
80.3417 3.87159 0.352684
12.1374 0.98257 0.104425
78.9692 3.45305 0.305423
31.6712 1.21969 0.113215
123.148 7.73737 0.860385
16.4983 3.78764 0.337552
20.285 1.7486 0.221277
3.87471 1.66987 0.160643
37.8369 1.20506 0.16157
58.6124 3.41519 0.250443
71.0783 3.87742 0.418712
6.76283 2.62984 0.229959
59.0391 5.34365 0.618226
15.7539 0.978631 0.0935565
18.0006 2.34767 0.307528
9.6799 1.00606 0.100921
67.2771 5.81877 0.768199
67.8578 3.11991 0.352172
12.0961 0.879306 0.083607
38.9351 1.4324 0.221969
11.4066 1.76096 0.172873
14.5795 0.467015 0.0322774
20.4167 0.348289 0.0435098
29.1847 1.37818 0.233109
33.6553 1.81061 0.170101
56.2078 4.66725 0.586764
10.9288 3.16132 0.331937
14.4395 4.26427 0.510962
11.5762 1.11795 0.202459
16.0573 0.25767 0.0743948
14.5809 2.86475 0.28858
20.5801 1.29576 0.149098
16.5195 2.48083 0.410879
17.1753 1.82828 0.217186
2.25566 0.443175 0.078333
21.9451 0.540731 0.0865747
10.6839 2.03074 0.305225
26.4123 1.44636 0.273863
21.3916 1.09908 0.0920903
7.36502 0.167077 0.028678
0.91104 1.47372 0.227086
22.4232 2.71992 0.330678
20.2113 1.31928 0.14673
18.3114 2.58489 0.390937
32.643 1.64 0.242507
28.8809 1.83042 0.264563
9.82301 1.2113 0.179737
19.6207 5.29903 0.893899
31.0891 2.8346 0.501329
12.9606 0.843085 0.260098
58.8866 5.26115 0.660613
37.6243 2.17088 0.37393
5.69851 0.775085 0.187941
56.3382 4.14979 0.606692
22.546 2.74746 0.379368
26.6249 3.20269 0.559954
32.65 3.83112 0.670907
6.19626 0.622085 0.0940247
37.4156 2.85331 0.509061
42.9452 3.96025 0.734184
16.6535 1.02661 0.278033
11.2864 1.10546 0.178959
3.38281 0.542852 0.0681237
8.65456 0.44033 0.104462
11.1912 3.13808 0.683132
5.05122 0.251005 0.13693
46.9402 3.92056 0.694039
9.20833 2.85948 0.465613
18.1925 0.645015 0.1072
14.0061 1.01304 0.145367
27.2772 2.9609 0.597625
2.42983 2.99338 0.669466
43.0585 3.00568 0.490205
23.3909 2.29627 0.445908
15.2736 1.03068 0.229428
48.4471 5.2223 1.01423
20.6616 1.86342 0.438134
16.1342 1.10472 0.198946
14.8151 2.07471 0.397949
27.0121 2.40705 0.588519
5.72981 0.563862 0.096361
16.1611 1.54846 0.359911
10.2882 2.62715 0.696754
36.9604 3.30234 0.704267
23.5757 2.6962 0.833952
3.69306 0.565844 0.134504
5.02271 0.157779 0.0191811
15.455 1.08787 0.279659
18.2795 4.78945 1.05222
18.983 1.75162 0.475783
11.2157 3.32591 0.721922
30.4694 3.4493 0.856715
9.94076 0.588538 0.257364
17.066 2.94094 0.669562
5.8855 1.94327 0.647035
15.4294 1.20541 0.342147
19.1373 2.905 0.746893
7.66911 3.77708 0.724015
13.7676 4.21555 1.09807
22.252 1.83013 0.486957
4.15437 1.38813 0.328762
30.8124 3.54771 0.932069
19.6028 2.55324 0.930333
7.46206 2.92104 0.615878
17.0551 2.1166 0.642844
7.52942 2.67088 0.607282
20.9495 2.64475 0.782189
1.99218 1.31309 0.308414
1.77214 2.45083 0.684268
26.337 5.41475 1.45254
28.4139 3.34506 1.00822
10.3795 1.56127 0.427592
3.74988 0.52386 0.142076
9.51756 0.667308 0.26959
3.33405 0.413886 0.173584
16.5402 4.06878 1.13577
6.27184 1.0643 0.22392
17.2088 5.79022 1.86239
4.14433 1.17185 0.242813
10.6387 1.6854 0.457901
6.53732 2.64779 0.938832
25.2328 2.63123 0.719883
16.2604 1.81754 0.620629
6.88322 0.404642 0.213567
17.5458 5.11439 1.55899
6.59434 1.40874 0.678829
8.03429 4.94293 1.30231
7.17188 3.7928 1.2773
21.1746 2.33129 0.653274
12.1093 2.7467 0.766118
10.6486 2.24289 0.627136
5.68096 1.73804 0.685279
13.3081 1.3976 0.473563
5.23609 0.156084 0.116006
13.3296 1.66099 0.434354
9.91165 2.09756 0.759942
5.10576 0.413778 0.206141
18.1217 2.92825 0.991133
6.52199 0.408217 0.22357
3.40862 0.194573 0.119091
3.58736 3.34406 1.21012
11.583 1.28913 0.454095
12.7875 2.03316 0.731287
27.2822 4.98955 1.84082
6.38103 0.584239 0.366878
5.49988 1.92264 0.877906
3.51437 0.835395 0.367357
39.4302 8.90179 2.8315
20.2502 7.30247 2.78865
4.04927 0.94671 0.416498
7.72729 3.87132 1.63477
4.07065 1.70291 0.446865
4.92965 0.669276 0.2237
11.6956 3.83091 1.76194
22.239 4.51751 1.86095
3.4059 1.22372 0.316943
7.28572 2.05928 0.61991
21.978 6.71847 2.91389
3.02965 0.864673 0.505146
15.5634 3.72352 1.5552
12.2117 2.09776 1.19724
5.68265 2.67723 1.26495
7.73631 2.46401 0.728068
1.84511 1.23711 0.472591
7.1049 2.22591 1.06967
0.529455 1.8965 0.87718
12.3527 1.85829 0.726835
0.464777 1.67168 0.581819
4.45738 0.492073 0.171794
4.91668 0.73649 0.33688
2.82018 0.256476 0.152679
5.2197 2.05355 0.998701
13.9785 3.31261 1.64303
3.44473 0.122309 0.127766
10.2894 2.49618 0.958185
0.640163 0.96304 0.357208
12.3466 2.407 1.20776
2.83701 2.06685 1.037
22.675 7.77985 3.41483
3.18731 1.32102 0.895962
13.2688 3.58324 2.40851
7.3483 1.62572 0.638734
0.343891 0.96005 0.19418
0.333314 1.46032 0.669604
7.72209 1.86427 0.980454
4.80001 0.701018 0.662096
4.60851 3.04364 0.949277
1.5265 3.31492 1.692
12.7587 2.91163 1.15962
12.8576 2.88946 1.7192
2.62434 4.08357 1.73154
8.46028 0.92241 0.354727
8.68897 1.72599 0.876649
3.43862 1.5412 1.1638
17.268 5.64979 2.44745
7.59926 1.76756 1.36896
0.583405 0.755229 0.136582
0.98472 1.32099 0.500333
4.30555 1.0679 0.723269
3.00821 1.79562 0.737792
9.41651 2.00125 1.15908
5.26014 3.78881 2.32179
17.0375 5.30565 2.75238
0.0633624 0.631861 0.290016
1.43303 0.0897836 0.0614375
6.10414 3.69541 1.56018
12.7025 11.3489 6.4248
13.5357 7.19414 3.04067
2.30961 3.39431 2.47494
9.68307 0.686694 0.233294
24.7086 7.40724 3.8036
2.8692 1.1892 0.716015
5.90005 1.8189 1.0197
4.24033 3.21093 2.0377
7.32731 3.46078 1.70477
4.25576 2.11039 1.20135
6.68128 2.26042 1.42334
19.2675 12.5738 7.49242
10.271 2.39435 1.43414
3.75296 2.21171 1.34635
5.70187 1.44316 1.23986
14.7121 3.95751 1.61995
10.1299 4.5029 3.74393
8.07853 3.51721 1.39079
3.96215 2.29498 1.72482
8.1459 3.0689 2.18864
2.35381 3.07759 1.41994
3.00686 1.50261 0.623231
4.50461 1.00971 0.89201
0.509167 1.45861 0.446498
2.47818 2.99324 1.3723
1.92145 2.82769 1.70175
6.40945 2.80496 1.84662
4.98392 0.688127 0.648967
1.65132 1.12982 0.430214
1.07242 1.141 0.704821
7.18315 1.19203 0.741016
2.05375 1.28558 1.11689
2.29938 2.01337 1.09325
7.59074 1.84593 1.71749
3.34545 4.71479 3.04665
11.305 4.06253 1.6674
3.11686 1.38307 1.04058
0.351964 1.26588 0.636325
2.90402 0.857866 0.582435
3.60634 2.18661 1.66768
10.0694 4.39578 2.83298
1.08385 1.08651 0.602612
4.03617 1.88846 1.47776
6.9587 1.47508 0.829099
2.98662 0.924658 1.05915
1.64887 1.13514 0.664542
6.17042 3.41318 2.19725
11.4217 4.41412 3.27717
2.41541 2.33271 1.96336
7.2914 3.76878 2.31781
2.10454 0.915578 0.296122
2.89302 1.53318 1.22765
2.3487 2.61563 2.08719
2.08079 1.26921 1.08062
8.4158 4.01004 1.51391
5.66676 3.99662 3.19933
4.07291 7.79509 5.21673
8.85435 1.86462 1.30319
0.634359 1.14921 0.664244
0.47911 1.9334 1.37596
2.94073 0.215771 0.0602373
1.97732 1.25652 0.637074
4.43547 2.72815 2.23757
2.10609 2.81118 1.80716
2.88602 0.883396 0.958688
2.49445 1.1358 0.976864
5.93887 1.7016 0.99254
0.750344 0.749244 0.726385
8.14968 3.05573 2.59659
5.04322 2.64437 2.48427
1.66204 2.32907 1.25606
1.16019 3.35387 1.96153
3.61907 5.03011 3.97906
4.23689 2.9686 2.55179
4.4682 0.650501 0.355959
6.37675 2.63668 1.82288
5.5155 4.48751 4.90611
3.90926 1.37162 0.866507
0.81883 3.44336 3.04973
5.11537 2.41798 1.25368
1.1536 0.968457 1.24774
3.46519 2.78837 1.635
4.0165 1.73078 1.5566
2.09672 0.175556 0.473357
5.13317 2.06263 1.85957
1.91111 0.475451 0.372089
5.91491 2.77955 1.83952
9.44956 4.19734 4.17122
2.1132 3.17264 1.98446
4.78667 1.30457 1.57299
1.75073 1.32539 0.577348
0.275551 1.50583 0.949126
0.883241 0.111326 0.122758
3.61578 1.65785 1.44379
2.5979 1.59946 2.06482
2.44929 2.94935 2.60123
3.59135 1.70451 2.02798
3.49379 4.0053 1.727
3.4941 3.66788 3.09076
1.84393 2.47177 1.20781
1.00541 3.8606 3.35455
1.11152 0.546865 0.409302
1.39086 4.78159 5.23345
5.11813 0.68536 0.398826
2.47334 1.36922 1.58603
3.67891 0.919479 0.645576
3.65833 2.54949 1.98763
2.5235 3.72715 3.93329
3.54891 0.627586 1.1838
2.23059 1.26038 0.882831
5.8407 1.62433 1.23083
0.861904 0.65906 0.462902
1.81564 0.331217 0.264549
2.80207 2.67962 3.72175
4.83002 0.748157 0.574946
2.37893 0.371444 1.0698
4.24777 2.69143 1.62366
11.04 4.96521 5.20392
10.4188 7.5086 3.93669
7.46596 5.71007 4.90648
1.30721 1.96553 2.67685
0.849583 1.14182 0.68223
2.01331 1.59573 2.05882
0.948125 2.27771 1.57052
0.504989 3.41596 4.42579
9.26981 2.81092 1.59344
3.0378 1.93166 2.74242
4.93692 3.011 1.83186
2.34412 1.56358 1.92536
3.45973 1.84729 3.43817
0.887723 2.46773 2.55384
2.38627 1.52767 1.17876
5.00284 3.37369 1.82135
6.99273 4.31564 3.60076
5.71917 3.30636 2.93418
2.3596 4.6454 5.80946
3.5809 0.774438 0.359304
1.04159 0.969848 0.893301
1.53585 3.44483 5.10775
7.0212 3.17912 2.12943
1.45688 1.90445 1.65657
1.78029 0.724094 0.836867
1.67576 1.11266 1.25359
1.52566 1.47286 2.1113
5.8032 1.52689 1.32063
3.35623 1.50685 2.53239
5.54881 2.75043 1.98286
4.88185 6.79148 7.05851
2.81238 1.73735 1.84537
1.42512 1.30497 0.785551
1.04318 0.235908 0.286688
0.523772 0.14452 0.833187
3.16821 4.55365 3.24681
1.92784 0.268204 0.333257
3.16661 5.44339 5.48448
1.64367 0.168811 0.336007
0.665471 2.27327 2.16228
2.21781 0.267966 0.503057
1.37461 1.54697 1.22631
0.0332685 0.86162 0.581977
0.792388 1.17131 0.996265
2.944 3.78858 3.57791
1.5729 1.00431 2.25496
1.29774 0.44521 0.320124
1.72431 4.14323 2.75248
1.51298 5.49754 6.08934
2.67636 4.71479 5.31739
3.82026 5.03868 6.91992
3.92628 0.604825 0.543624
1.65331 0.619168 1.26906
2.57907 1.77613 1.94275
1.70675 0.868133 1.45523
0.678493 0.642577 2.20164
3.31868 2.62645 2.02996
1.78862 0.547813 1.06273
1.01461 1.50593 2.28003
1.54607 5.12321 7.70466
8.64155 2.38348 1.43676
5.80666 5.49314 6.73035
1.94041 2.23344 1.90539
5.16836 5.30664 6.99156
4.62183 4.13011 5.0269
6.60913 2.8176 2.17061
3.33792 2.24863 3.46947
0.957951 1.49896 0.881827
0.595643 4.584 6.17009
5.13554 3.50488 4.07679
2.71453 0.57407 0.607198
2.09577 1.77167 3.24864
3.99 1.04592 0.800881
2.39351 0.732889 0.89301
2.75638 0.872669 0.602334
3.31019 2.58558 5.54702
7.26047 11.0616 11.2945
11.5201 8.41581 9.01171
0.124972 1.23021 1.3924
0.847102 1.35693 1.14419
2.65953 4.4016 6.95461
5.14021 4.94366 5.47562
1.50505 0.742903 1.73775
4.32517 2.32144 3.58195
5.68525 1.99592 1.13896
1.4659 0.182463 1.07445
10.23 6.96106 7.32425
2.03159 2.53044 2.72647
1.38642 0.584681 1.93334
4.25192 2.99384 2.95571
3.74042 3.00347 4.10034
3.81171 2.83111 3.64352
3.37748 1.74598 1.71459
1.87023 1.7068 1.96535
1.4971 0.463444 0.93358
2.04094 1.4565 3.0469
0.600855 1.98092 3.27622
5.07635 2.66711 1.74936
1.82132 1.46409 1.49559
0.772496 1.41097 2.3265
0.959805 0.360576 0.344468
1.5288 1.82563 3.79288
7.30222 4.14091 4.08833
2.06911 1.43705 1.48684
1.9275 1.1348 2.27968
1.23461 0.717151 0.68896
2.2914 2.12804 4.35613
1.89666 1.05048 0.575165
1.73314 0.817116 0.593128
3.45523 2.99388 3.01997
1.35488 2.66027 2.96828
1.14842 1.43791 3.02512
0.823587 1.14861 2.01711
3.32377 0.969348 1.49175
6.2912 4.70804 6.39857
3.25812 5.24274 9.83439
1.94215 0.379561 1.02572
3.01009 3.93248 2.99142
2.53849 1.61273 2.71759
2.54247 2.51223 5.34924
1.50874 2.26207 0.994742
0.730969 2.85274 3.91572
1.47015 0.207844 0.872639
5.21621 3.7875 4.64301
2.64921 4.52235 4.9893
2.4948 1.67772 4.09181
0.178836 0.856479 0.224867
0.983808 1.12368 1.6744
0.113564 1.15637 0.780283
0.772689 2.16789 2.90749
2.84444 6.35306 9.99349
3.96798 2.52316 2.13609
0.30217 1.80943 2.8014
0.147682 2.43659 5.64062
4.22592 5.93786 6.06461
1.25 1.01003 2.15797
1.60507 0.841611 1.26879
2.84682 1.41562 1.85971
1.34496 3.13202 7.18919
2.51998 0.719495 1.22539
5.63335 6.88394 7.46901
2.36639 6.30813 8.12695
3.02924 4.11286 8.0464
3.05767 1.22154 1.11831
0.782325 1.37113 4.92206
3.86671 6.31628 7.8809
4.99763 4.54236 7.11768
1.94822 4.16897 6.78748
4.01269 2.66535 5.70565
6.18829 6.5357 7.41066
2.80193 1.34492 1.22179
1.14302 0.594483 1.40678
0.552043 0.706169 1.51354
2.35298 2.494 3.85432
3.83005 2.63581 5.47099
3.14251 0.881543 0.13616
3.91491 3.64117 5.08672
0.466126 1.09285 1.77871
1.63516 3.23424 5.28779
3.12001 1.66363 2.75329
2.07459 0.82957 0.818341
2.11126 2.83917 5.39093
2.82124 1.85874 3.49894
2.8199 1.43341 1.72671
5.16762 2.52724 2.49187
7.81716 9.85186 13.7036
0.431779 1.77207 3.44409
2.8018 2.5352 6.43896
0.579431 1.96004 3.23374
1.85596 1.00007 1.11243
0.755004 1.06461 0.941034
0.517649 2.32847 3.44412
2.17565 1.08229 2.14421
1.58318 1.23378 2.21921
2.1707 1.12912 3.5451
6.65595 5.96703 7.63691
0.362594 0.327442 1.00966
1.71278 4.12179 6.38756
0.892715 0.175514 0.471389
0.57084 0.929612 2.34032
1.18434 2.24368 3.76295
1.10164 1.68599 3.06882
3.2373 4.78329 8.16562
2.91276 2.03812 3.3643
2.38807 2.14311 2.77745
1.98283 2.47444 4.40568
2.54463 0.8303 2.3545
3.64902 2.6333 2.3097
1.18607 1.32724 1.53546
0.472099 0.295886 0.42865
2.52211 1.98277 2.60306
2.30939 3.74086 8.24069
0.82813 2.10344 6.34797
4.2964 4.62953 6.10958
1.44667 1.21479 2.75508
0.507675 0.903946 1.29621
0.480788 0.663235 0.408089
0.558146 3.07216 4.12991
2.70512 3.90156 8.42597
3.1705 2.88708 6.52813
2.34043 5.1775 8.468
3.63554 2.55455 2.07493
1.78913 2.71187 3.60732
1.31172 7.21137 13.2542
2.28035 2.59803 5.70611
0.65274 5.30721 15.2228
5.57266 2.55168 3.63874
4.17862 4.92912 3.2063
1.17109 4.02646 7.97967
2.30645 1.55556 5.03134
6.05641 4.62404 5.05774
1.80663 1.17636 3.01828
2.25642 2.3418 5.09008
0.761379 3.21347 4.31755
0.878268 1.06715 3.32111
4.53358 3.06218 4.79906
1.93023 2.06191 3.08723
0.963701 1.83096 3.30157
2.74841 3.55689 6.35492
1.70042 2.11473 1.85793
0.418606 0.333929 0.719457
1.20863 0.91168 1.63938
3.42913 12.2276 26.0084
6.515 6.57246 11.8002
2.65421 7.24613 8.22043
0.654957 2.50182 6.30799
1.57325 0.642256 3.98455
5.34821 5.75867 8.58689
1.74608 2.6914 3.71975
1.25171 0.428251 1.01844
3.20893 4.05279 10.108
2.20206 3.88337 4.01703
0.598642 1.36234 4.57772
1.09406 4.96116 9.25784
1.49058 0.647735 1.42822
2.3692 2.68035 6.39569
0.785294 1.39598 6.0706
3.10877 2.89861 1.78697
1.69275 2.78866 7.15329
0.651641 3.54181 5.00374
1.59221 0.2026 0.365826
2.57604 4.12407 10.3001
1.05909 1.07658 1.20104
1.43916 2.03082 2.26696
3.07949 4.85236 13.4482
1.1827 2.18085 1.30265
1.06105 1.61137 1.66059
2.8494 5.14296 8.00296
0.852318 2.29729 7.67317
0.996294 4.61416 5.45651
1.28921 3.78988 8.94906
0.828593 1.85258 4.02687
2.98851 7.38808 16.5488
3.35569 4.3195 5.67821
1.41931 0.389354 1.3519
0.915122 0.466588 1.32447
2.07906 1.55591 4.39591
2.35722 3.54563 7.32678
2.00394 3.00758 3.7403
0.966152 0.305053 0.314449
0.555342 4.22797 9.41035
2.65894 1.15608 3.07248
1.61871 0.300957 0.362842
2.02457 1.99475 3.37734
0.888146 2.07588 6.59794
1.26696 1.01676 2.01816
0.378588 0.798647 2.39761
1.8861 0.431816 0.103495
2.66333 2.72349 4.82985
0.529187 0.963787 3.29903
2.71894 3.97927 6.20773
1.04918 1.00402 4.23076
0.478707 1.36728 6.3548
1.24681 5.06262 6.33433
0.981022 0.420154 0.603146
0.722534 1.0947 3.44045
0.930767 3.02268 5.7998
1.21414 4.38537 6.14402
1.7971 5.03635 11.8261
2.99709 1.22236 3.08902
1.41291 0.932815 6.84604
3.19049 4.77797 5.45354
0.490783 1.57628 4.02549
1.36665 6.78626 8.99866
1.92902 4.62765 12.9206
3.0937 2.47032 3.62486
1.08319 3.06423 8.23074
3.99249 4.13402 9.45669
2.76045 3.7383 5.70089
4.22513 7.70769 13.097
3.18506 4.35295 12.5133
0.647149 1.13876 1.35039
0.469813 2.19345 4.56832
0.552987 1.85984 4.83205
1.80557 2.63072 7.3948
2.64393 5.1596 7.1371
2.91053 2.88191 6.41792
0.566994 3.39347 7.06855
1.05636 0.250589 2.78527
1.97463 6.02066 16.4599
2.24342 3.72052 3.43966
1.32698 2.95233 6.20161
0.88629 0.166227 1.33213
2.12716 4.72106 7.70277
0.297304 0.73479 1.7596
0.595199 1.74565 3.90827
1.03328 0.284822 1.24878
1.99356 3.04691 9.78384
0.674012 2.23422 2.66641
0.250237 2.29843 2.14372
0.597692 0.718663 1.5963
0.145962 2.88637 5.88932
1.43219 6.85963 13.2486
1.62134 0.231679 2.23445
1.93672 2.76045 3.84234
0.568345 1.14524 1.64817
0.692588 2.89485 8.7081
1.24444 0.720415 2.93993
3.1992 3.72678 6.82371
0.456303 0.375843 2.20419
1.44949 8.00034 14.9015
1.11517 2.83455 7.23288
2.0229 2.27475 6.00591
0.62482 1.09009 5.55545
3.13874 2.0095 2.81266
0.457337 3.50762 6.9399
1.17279 1.72642 10.9588
5.92133 5.61984 7.10706
1.53099 2.21582 9.39284
1.956 6.5631 11.9057
0.861871 0.702141 1.70046
1.71839 2.23938 3.28509
0.854804 2.33314 6.43638
0.630867 5.77443 16.3188
2.59934 1.74731 7.13018
3.52215 5.02533 14.8766
2.31995 5.53123 10.8447
3.93879 3.27707 3.89891
1.83068 1.65129 2.97668
0.655616 1.21166 4.8979
2.5092 2.7093 5.58927
1.54056 5.38562 17.948
3.23249 3.04478 1.72647
0.946408 1.11094 5.3127
3.53007 7.87226 22.5268
1.6835 5.18068 6.83495
1.19962 2.18514 4.41994
0.6105 1.91312 6.05217
2.20774 1.1879 0.667351
0.83427 1.85999 4.74272
1.80087 1.62479 5.74878
0.172276 2.24788 4.92838
1.65861 1.89334 4.30121
0.946829 2.07195 4.14948
0.928128 2.3311 4.10424
0.463 0.505849 1.12356
1.00591 2.71519 10.2364
2.86331 5.25571 6.84803
0.923648 2.19711 5.9477
0.458524 2.86536 13.6111
5.95134 7.71261 13.1388
0.885608 1.29831 2.43714
0.144781 2.49775 7.18615
2.27388 1.84713 4.74867
2.41961 4.73136 14.4313
2.59779 4.17058 7.35307
0.411969 1.44418 4.18734
2.08926 11.1286 30.1966
2.56077 1.51274 5.64292
2.53192 1.771 2.03192
0.940755 1.35998 2.04619
0.989348 0.87516 3.00537
0.965008 1.07953 2.59657
1.02497 1.92633 9.73959
3.66416 4.15996 8.50309
0.902178 0.165511 0.997363
0.91181 1.00622 7.22429
3.67012 3.23173 2.98293
1.09096 1.15303 4.4722
0.937365 2.05528 1.43677
2.5669 5.54165 7.73036
0.689889 1.76541 7.35541
0.990555 1.31606 3.99375
2.87983 8.0085 17.5608
0.818857 0.712426 5.77046
0.92013 1.38902 5.10183
1.39841 2.51952 2.29344
0.346132 1.48633 6.17208
0.688878 1.03112 3.05945
2.04929 5.22713 10.5434
0.875629 0.495912 1.49151
0.710389 1.71842 5.51855
0.37208 1.24017 8.47729
1.96037 3.50384 9.89481
1.86167 4.21526 17.2384
0.837032 0.924649 5.08564
1.88695 3.43347 4.33113
0.394545 1.22208 3.9704
0.413375 1.81328 11.7589
2.10031 5.22407 8.84442
1.50363 0.253036 3.95641
1.47964 1.74275 4.64777
2.33452 2.08839 3.81384
1.42857 3.92878 9.87874
1.2141 0.541278 5.816
4.71019 8.89603 27.5585
2.9335 9.71299 27.4514
5.2478 7.44696 8.764
1.58579 2.98984 11.4414
0.640857 1.45715 14.0495
4.61978 9.34879 18.6072
0.817484 2.90803 1.26175
0.25952 0.837195 2.17404
1.35026 2.02428 8.26058
0.709308 3.49367 5.96535
0.944352 3.35914 10.1521
1.62999 3.12442 4.69204
1.16778 0.767048 8.33558
2.21827 6.23806 8.86793
1.15584 2.59075 3.83835
0.781886 2.63669 2.6889
0.135235 5.84998 20.9799
3.04597 1.23346 4.04136
0.831343 3.79838 10.2991
0.838014 1.82154 7.61092
2.02993 1.0184 2.85113
2.0542 5.40425 19.6834
4.78433 5.08797 5.9883
1.67952 4.04483 13.028
1.41901 2.80484 5.24493
0.505917 3.07869 12.6397
1.52532 3.92007 3.19288
0.045249 3.93488 15.8702
3.4347 2.59489 2.60298
0.66926 1.06512 5.41802
0.788767 0.935282 2.57233
0.47577 2.37162 4.53186
1.22091 2.20015 9.10141
0.858122 1.37259 5.70313
2.16592 1.65778 2.84935
1.03011 1.49787 5.27416
1.23251 2.97632 7.74009
1.71426 1.58349 2.24045
0.622591 0.669961 3.31812
0.826764 3.46209 11.6012
1.28862 1.03855 3.7618
1.64188 2.95031 6.11457
1.75002 1.84101 6.28933
0.618956 1.82266 6.01472
0.848943 5.95272 10.8691
1.45676 0.516406 1.8778
0.219705 1.76628 6.52164
0.927052 3.3848 5.9407
0.641745 0.941022 3.86825
1.30833 1.23356 5.84529
2.41853 2.65757 6.89953
0.635493 1.3459 3.01573
0.828355 2.98759 10.226
1.14222 2.92557 3.76332
0.119468 1.88696 7.60408
1.11976 4.04718 29.8669
8.35552 14.2135 22.8436
0.918683 2.89508 11.9234
1.92048 1.58879 2.03877
1.93195 4.79965 16.7365
0.903638 5.07729 12.143
1.749 1.89444 2.98535
1.61621 3.43895 14.0791
1.06229 2.76232 9.05671
1.97329 2.41785 2.18693
0.748669 1.77933 8.79409
1.34917 2.28106 4.7305
1.45358 1.88891 6.5495
1.24102 1.71014 9.7173
2.03821 0.992511 7.30629
2.7931 4.54438 11.1452
1.45999 2.88237 6.27776
2.48224 7.00851 17.5805
1.86808 3.96653 16.1863
0.762369 2.86276 4.29279
1.30189 0.34828 2.04596
1.83736 4.15529 10.8183
1.09394 3.78251 5.45832
1.52576 5.02584 14.4018
1.12326 0.814922 4.18806
0.958537 2.89733 6.04115
1.34822 4.4371 20.8753
0.939765 1.31047 1.39839
0.489261 2.60889 5.48039
0.124953 3.12848 4.88998
0.429242 0.920729 5.72421
1.3576 2.89453 9.42182
1.73569 5.87134 17.2597
0.957228 1.39535 1.90532
0.0490628 2.83118 11.5194
1.97344 1.83175 3.14353
0.693419 0.71536 0.958315
0.317586 1.55676 6.90239
0.367881 3.93848 18.3125
2.30752 1.76027 1.0156
0.95586 3.53734 14.9996
2.29111 2.83009 4.01548
0.621368 1.0503 7.70859
1.5859 1.84546 6.72236
0.696062 2.11944 4.65681
0.321535 2.17764 7.19108
0.768095 6.81211 16.0363
1.64688 2.42384 13.8376
2.6714 1.29426 2.81444
1.84858 1.65884 2.33524
0.517171 1.61226 12.3943
0.949014 2.40627 3.32591
0.610902 3.67173 10.6919
1.57915 2.09045 1.70071
0.496655 3.66276 16.6647
2.03439 0.716965 11.9922
4.49867 6.40306 6.94301
0.462969 1.20401 9.62457
1.23498 3.0214 8.34426
1.88496 1.8719 3.579
0.888668 1.18061 3.92764
2.14915 4.50434 13.6934
0.512343 2.97252 8.67455
0.917573 3.92949 15.3108
0.73921 6.48925 31.2836
3.6302 3.24909 3.38719
0.720022 5.30597 13.0848
1.71774 0.94717 11.9977
3.53382 4.49566 8.05239
1.06803 3.71842 10.454
0.441985 5.13439 25.6306
4.17092 2.99839 5.28302
1.37594 2.45352 16.0319
2.3211 4.58524 7.87102
0.286963 2.24466 7.5127
1.35645 1.0132 8.80462
1.28727 3.84798 1.6363
0.623841 3.04822 6.52305
1.08877 12.4983 41.2239
3.52394 4.86715 13.8912
2.75044 1.33 0.14711
0.882579 0.309951 3.43169
2.10307 4.76149 8.84265
0.225055 1.49698 1.02236
0.261749 2.96937 6.23486
0.659343 8.26385 30.5751
2.28354 1.84313 9.91146
1.38398 0.673174 4.52432
1.15546 1.87444 2.89793
0.465603 0.324894 1.95067
1.06524 1.00926 0.888824
1.00634 3.72665 9.74275
0.550891 0.332448 7.83573
1.05136 5.26488 11.8263
1.49295 0.122057 0.657987
0.88703 0.421695 1.49823
0.421034 0.490102 4.18456
0.685679 6.70757 21.5693
1.40793 0.7256 3.70964
0.766807 2.39092 3.92318
0.423553 2.13874 13.2135
2.8073 6.10655 14.8229
1.0565 2.55332 12.7941
2.32051 3.45352 22.9288
3.7215 7.15699 30.4261
6.31609 10.5695 12.2674
0.597415 1.09186 10.4965
2.85446 4.90533 2.50883
0.948521 5.31367 20.5391
0.465833 3.61186 8.45781
0.657171 0.872788 1.52217
0.16611 2.82071 13.8176
0.806271 3.61434 11.1197
1.2066 0.595064 5.56774
1.44734 1.15826 3.18381
1.22668 3.55835 9.20844
0.55357 1.14565 16.3912
1.01371 5.34463 8.81508
1.37396 3.7732 12.7333
1.6995 3.09415 5.33342
0.576395 0.435302 1.29246
0.304808 0.954792 4.48557
1.14313 0.723669 2.24995
0.836011 0.112186 0.813174
0.490576 0.434595 3.16581
1.33759 0.910147 2.1282
0.207302 1.8405 11.2586
2.11637 1.77601 3.13594
0.355755 0.49868 4.68171
0.986364 3.02397 9.19677
2.28226 3.57622 16.6745
2.25977 3.37222 7.52826
1.4395 2.92846 2.90154
0.273266 2.19942 4.52856
0.541919 1.99109 4.3371
0.840916 0.317359 1.73674
1.30614 4.45576 18.6016
2.05108 7.94254 23.6832
2.30122 9.2282 22.9453
1.28176 1.2653 5.58465
1.48637 2.35505 10.2512
0.244203 1.93944 8.46293
1.26418 1.02917 6.30074
0.571446 7.68378 25.4696
3.22325 5.03787 9.6822
0.262446 1.43803 10.789
0.993089 5.75179 14.2982
1.44251 0.0645256 6.47072
2.02841 3.58485 10.1425
0.60105 2.29243 6.19218
1.27898 0.851886 0.987551
0.166004 3.47342 19.141
3.21015 3.99225 14.7417
2.56359 5.75021 16.4261
0.433885 4.59125 15.4166
2.01642 4.29036 11.5241
0.790115 1.61063 1.61636
0.208143 1.36125 13.0975
1.5156 7.2314 15.6417
2.0847 2.46644 12.9199
0.70819 6.93776 18.6219
1.42307 4.06345 14.5717
2.21756 3.26277 6.70363
0.13067 5.32264 23.1554
2.40397 0.402051 10.6616
2.09471 2.6243 16.9502
3.36214 3.06275 2.16918
0.840989 1.45953 8.43432
1.16569 1.65719 2.39448
0.452185 1.00304 2.72197
0.533785 0.546518 1.99069
0.775933 0.875055 11.5154
1.78363 5.49262 7.5807
0.749406 2.49099 23.3314
1.60334 2.55556 13.7322
2.37619 5.55858 9.39956
1.92629 3.36954 13.4632
2.42568 3.56619 15.4585
1.3521 3.66513 11.7009
3.09546 9.47652 29.7535
1.37738 3.8461 7.51777
1.53618 2.78486 14.7823
2.61663 6.78742 15.584
0.179821 0.483828 4.14807
0.769405 6.95652 22.8907
1.35666 1.97807 18.6879
3.38668 4.80125 8.85694
0.2182 1.82437 13.0077
2.19763 3.37004 6.39086
1.34039 0.349788 5.98593
2.61106 5.88799 14.2268
1.93632 4.87635 13.5364
0.83764 1.86785 7.0428
0.714403 3.19728 7.61583
0.403582 1.86995 10.5856
0.362253 4.98431 13.6765
1.51859 0.786141 6.85421
1.13951 1.15222 17.3176
2.35273 13.1966 32.212
2.58115 2.29106 8.79315
0.351839 2.02462 22.7418
1.93183 7.51461 27.0761
4.34396 7.19557 6.92412
0.297011 2.33181 10.916
0.556379 2.1504 20.3581
1.41363 5.74058 9.18005
1.40202 4.98969 21.9241
1.21367 1.6738 6.27515
1.28693 1.03926 5.57204
0.963371 2.42415 4.46094
0.309977 1.88752 10.008
1.10227 4.61824 12.8108
0.878532 4.62924 12.6213
1.86514 2.91489 8.34754
1.44933 2.8305 4.38614
0.679736 2.86069 17.2014
0.291794 2.74067 12.1553
1.13358 2.4942 12.5998
1.74996 3.77608 4.89803
0.313857 2.52953 3.16161
0.793632 3.56779 21.7204
1.13925 2.12304 9.87939
1.66111 2.90136 2.68374
0.857081 1.01906 2.25426
0.0714455 1.66459 7.22815
0.810043 0.440473 4.28729
1.0376 1.01712 1.95586
0.0402535 4.39335 36.0191
4.8937 7.86183 10.0711
0.933881 2.12076 9.22565
1.09753 2.39864 5.27257
0.782949 1.80974 3.34649
0.915039 1.74113 9.16376
1.14163 1.02785 7.7342
2.07154 8.37359 28.9263
0.841087 1.7114 6.91
1.10132 2.41037 5.19545
0.439513 0.872278 7.95129
1.17579 1.78943 4.7262
0.746783 1.98548 4.12002
0.922172 1.3139 11.8601
1.49751 5.78547 7.24248
0.703867 1.19693 7.71726
1.25151 5.71069 26.1467
3.23681 4.40684 13.2661
1.2913 7.25079 18.6657
1.2519 1.91896 14.7955
0.408518 3.15516 5.8474
0.403718 3.18839 17.9101
2.48385 2.43738 14.096
2.2838 3.0843 8.68763
1.04835 1.89805 6.01692
1.55764 4.7596 7.3005
0.655163 2.55939 5.33152
0.774495 2.86391 11.1173
0.534678 6.18047 23.6511
1.68498 3.5478 25.1202
1.5741 6.12293 20.6145
2.2177 2.28265 5.04031
0.204844 0.632646 2.88388
0.0427675 0.43274 3.21463
0.195966 2.03174 2.34424
0.550308 1.86647 10.4467
1.98058 2.6923 13.6242
1.73461 3.5316 5.87515
0.505822 1.82717 20.5631
1.66322 4.91006 16.2852
0.567407 5.44394 6.84153
0.28553 0.747954 5.12645
0.227464 3.8918 7.73805
0.661289 2.5125 20.8504
2.62995 2.28407 18.1015
2.47425 2.21328 9.66585
2.75862 7.52846 15.1747
0.540468 0.856863 0.498025
0.595057 2.48518 8.99472
0.173546 5.6521 20.1101
1.78123 0.565421 6.73407
0.947242 3.59136 2.64263
0.917204 6.18625 21.5596
0.702966 1.51313 11.7617
2.16998 4.52253 17.251
0.337953 2.36666 9.93534
1.40657 1.86657 6.34427
0.0572549 0.716409 3.74642
0.275775 1.64914 10.0427
0.436348 2.07873 8.9366
0.589715 5.61879 7.264
0.673159 1.43501 8.35397
0.875828 1.37908 2.6107
0.193999 4.90439 28.2115
3.28502 2.25424 9.57949
1.51555 0.847809 17.7574
2.15073 10.4877 23.9196
2.13414 3.31622 20.9362
2.07361 2.03827 2.23998
1.32812 6.07643 13.6221
0.942455 1.3995 12.7879
0.525174 4.39947 7.62781
0.429374 1.09626 7.10027
1.00892 3.62989 15.2879
1.94995 1.80192 8.55055
0.354257 1.6353 3.15648
0.76717 0.997436 6.75459
0.653643 2.46606 7.21646
0.890201 0.897349 7.51525
1.04298 1.29395 8.6422
1.19828 5.55049 10.4058
1.05819 1.61528 11.5548
0.463289 1.62328 9.12158
1.02983 1.30323 6.65548
1.38757 5.46084 16.7971
1.05345 0.451471 6.41051
0.498576 2.02754 0.918162
0.537437 4.60698 4.98786
0.157666 2.86785 9.12376
0.814009 5.09618 48.2781
3.79437 4.32416 5.89037
0.393424 5.06675 16.7091
1.84687 1.45241 12.8485
1.04728 10.2278 30.6356
3.03316 1.47292 4.35072
0.425238 1.69354 7.23076
1.17839 4.51265 24.1493
2.53154 2.80572 33.357
4.61766 9.08777 14.7728
0.850378 3.52636 22.2349
2.41608 1.99437 8.25589
1.22561 2.57999 14.1096
3.05755 8.17872 2.65246
0.69917 7.38928 28.065
1.52665 2.65994 15.2805
0.598929 1.28699 9.56539
0.649728 2.83548 8.18911
1.63835 4.45204 12.6397
0.582474 1.18093 15.1708
0.442386 5.7902 13.9177
1.92045 3.23148 25.7273
3.19011 4.6405 7.24475
0.98209 6.33513 27.1376
0.935619 8.73625 17.8484
0.560432 2.24698 7.90757
1.2398 3.27209 19.1454
0.659933 0.804457 19.7448
1.4516 3.25655 42.8625
3.8337 15.8597 25.8407
2.43716 2.81387 6.02848
0.021557 1.02007 8.33853
0.743593 3.90739 12.0646
2.0043 4.2353 17.4682
0.561565 1.18687 4.36486
0.600181 7.49258 23.0573
2.05328 0.337756 17.64
2.45402 3.75996 13.3268
1.68617 5.31214 27.2673
3.39499 4.72129 6.77274
1.14942 6.81423 20.9311
1.35714 1.34144 1.88134
0.64371 1.30879 4.74083
1.0002 5.86677 28.6618
2.56162 8.06485 21.5812
0.591066 2.386 2.19503
0.24837 2.69854 7.07049
0.506941 1.36762 6.59045
0.33824 0.813141 13.4311
1.68074 4.09035 8.10503
0.404374 4.9399 25.9038
0.985565 0.899969 8.58055
0.146889 0.12712 15.1367
0.588465 1.42293 10.3007
0.80093 4.62516 13.9182
0.618529 2.53474 2.24441
0.0499804 1.32186 1.26759
0.0710562 2.91099 8.16448
0.948804 1.37443 8.66089
1.03116 0.19944 5.44105
0.546733 1.73536 13.6464
1.95238 5.12851 9.09922
0.581936 8.90883 31.1149
2.69113 0.973163 1.93144
0.334739 0.954212 5.49238
0.889238 3.57506 9.20855
1.07861 0.752833 4.87981
0.839123 3.53222 21.6915
0.991088 4.35939 21.0378
0.790988 5.6763 8.63659
1.07014 0.314648 7.11101
1.25236 5.29901 17.8684
1.11921 0.733189 4.11784
0.431631 4.90293 20.8419
2.28933 1.03035 10.0185
2.11926 8.076 25.6069
1.05229 1.09015 5.62625
1.19303 5.65997 26.9934
1.52367 5.25111 21.8327
1.40468 3.22446 6.37872
1.19284 1.92181 3.72611
0.629897 1.66583 7.00911
0.508852 1.40155 4.60671
0.606623 1.55112 10.1981
1.7725 1.76565 7.4786
0.603129 5.65207 12.0294
0.931214 0.525853 8.19859
0.854399 0.829959 10.7236
0.328299 3.35817 6.50706
1.10328 1.25838 8.60662
1.12831 9.4967 59.9793
5.79742 7.34205 15.1497
1.66649 7.10795 15.7424
1.14718 6.14726 10.9278
0.383245 2.52215 18.6661
1.07103 1.89434 6.48687
0.492234 2.72793 4.23232
0.437497 2.2786 18.1515
1.51957 1.74576 3.33782
0.894041 2.59786 13.3323
0.404733 0.853707 21.5524
1.84926 4.33859 8.06881
0.111766 3.28852 8.1171
0.907253 1.4484 1.93259
0.293913 0.994915 2.76235
0.390052 2.16589 14.4872
0.283234 3.6879 12.8732
1.15432 0.706141 18.2948
1.60586 1.29195 3.9655
0.546685 0.756426 1.83637
0.695645 0.444583 4.25825
0.686754 1.0053 4.8452
0.908846 3.61923 10.3311
1.12369 5.27296 19.9928
0.573905 0.412169 8.28675
0.488671 1.39353 36.3838
1.35458 6.88522 13.7489
0.824282 3.87334 0.750037
0.312954 1.91279 0.327244
0.342208 3.50476 20.2108
1.83733 2.69118 2.89661
0.893315 3.17397 7.76722
0.584116 0.887232 8.27253
0.741592 1.11032 12.9803
1.22312 4.27654 14.1292
0.672309 3.90698 30.9582
1.99561 7.78369 14.1138
0.725633 1.66356 5.87519
0.395749 2.58727 8.14908
1.21753 3.58459 19.7678
2.23518 1.98027 1.83623
0.148634 0.697734 16.8114
2.02741 5.12263 5.6208
0.0840541 1.99753 29.8051
1.59522 4.25882 3.2799
0.906246 7.12891 30.7321
1.30524 4.14372 17.6449
1.0876 2.42131 7.45594
1.06448 4.04239 5.39712
0.396604 7.03939 65.1567
4.90688 5.0564 15.1826
1.61486 6.81805 16.8271
0.639938 9.31997 13.0305
1.25279 4.32786 23.8738
2.93895 3.50128 15.3687
0.62472 3.9645 9.94785
1.40529 4.96384 11.8483
1.44343 1.16228 10.3481
1.51334 2.70408 6.72016
0.26393 0.765344 11.0801
1.45603 3.60455 6.24748
0.714551 0.684132 7.48841
0.720306 0.464747 17.4993
1.34436 1.51065 19.3631
1.08081 7.3547 15.4758
2.28626 3.91566 6.23914
0.774932 6.91123 13.4781
0.70305 9.26024 41.9105
2.11224 3.59197 13.9385
1.11843 4.13145 30.8152
1.07052 9.07001 11.7141
1.6361 1.27235 3.22178
0.710895 2.42808 18.523
1.94746 3.40997 10.649
1.50723 2.70067 5.72222
0.344357 0.955536 10.9246
0.32156 5.77356 10.4087
1.38747 2.27123 20.9863
2.50928 6.11048 30.6863
2.8702 7.46773 28.8519
2.66307 2.84225 15.4582
1.39704 2.90773 10.448
1.79637 4.41541 6.13164
0.364689 2.24415 7.84084
0.0804219 2.40883 11.0477
0.804553 0.405907 4.03299
0.500826 1.77941 15.9792
0.521959 1.89824 3.55194
0.189199 2.81109 9.41908
0.489196 7.6992 31.5182
3.56488 5.22134 19.3784
1.87284 1.93711 4.5231
0.119062 2.66251 10.579
1.27771 2.0544 7.45294
0.4439 2.10086 10.7531
0.479528 5.88917 11.0881
1.68778 1.59577 12.3527
1.77645 2.56915 13.2759
1.87752 1.05027 22.786
2.76042 8.23936 37.6756
2.388 6.18695 5.56269
0.548131 3.60993 34.5235
2.22654 5.86695 12.1617
1.84184 8.77683 45.1787
1.62584 7.78183 11.2485
0.909323 5.72847 19.4024
1.98137 2.24514 11.4443
1.76432 5.90016 19.2988
1.63754 2.25236 23.6577
2.20773 4.33113 3.9679
0.627749 12.8179 77.153
3.84365 5.19979 19.4668
0.822019 8.99811 11.3532
1.27028 7.67254 53.7999
5.4972 0 0