# pn-170911/RbIIA-26-USNO-1280-1959.psd
# Power spectrum* (dif=0,1,2) (really just |FT|^2)
# NOTE: only the first half! (symmetric)
# weeks: 1280-1959
# 10 clock-days, 1 excluded
# PSD: 1441
7528.13 0.127505 0.0111273
197686 1.88734 0.00592065
901692 20.6292 0.00716316
153289 6.79993 0.00764143
105690 6.69674 0.00794244
54421 4.60553 0.00874712
37738 5.0354 0.00621298
20450.1 4.91192 0.00523015
22438.3 5.59752 0.0112281
11447.3 4.50754 0.0105929
15019.3 6.87053 0.0125555
13178.4 6.64827 0.00939735
4273.1 2.7041 0.00908077
10906.1 6.14348 0.0133762
6214.58 4.95531 0.0142046
3351.7 3.33842 0.00793192
8645.15 7.99479 0.0204953
5668.04 8.19127 0.0118277
2434.84 2.71659 0.0137962
2894.82 4.06396 0.00997209
3393.97 4.59798 0.010833
1824.75 2.68324 0.0154883
3825.57 7.77795 0.0347279
2893.8 6.55255 0.0178122
1489.83 2.72636 0.0160244
2179.1 5.10297 0.0245173
2449.38 6.14434 0.026506
1047.4 2.87838 0.014833
1460.87 4.16657 0.02395
1529.69 5.25226 0.0253667
1332.55 5.17185 0.0284359
1110.23 4.06896 0.0101555
1430.61 5.84806 0.0313791
1793.63 8.08407 0.0371645
757.031 3.24544 0.0211392
1088.42 6.18315 0.0400024
1411.82 7.32582 0.063108
533.854 2.71895 0.0226266
1190.19 8.18216 0.0497759
684.826 5.07379 0.0423739
963.895 5.39823 0.0415719
596.18 5.0392 0.0443375
862.541 5.85349 0.0549139
657.857 5.43516 0.0497277
362.904 2.09273 0.0206529
400.439 3.72836 0.0434145
437.032 3.22201 0.0269391
592.655 6.08675 0.0789453
345.079 4.64683 0.0572861
190.688 1.97731 0.0319042
470.032 6.19077 0.066756
654.437 4.71151 0.062639
572.629 8.63621 0.110392
331.552 3.66162 0.0549163
342.605 3.67174 0.0666462
323.281 3.30554 0.0427043
346.221 3.16594 0.0473987
325.274 3.95671 0.0705669
214.957 2.8075 0.0713104
305.13 2.90328 0.0465151
325.65 4.2719 0.0777627
225.371 3.43086 0.0740132
382.751 5.51651 0.0871885
288.332 4.70808 0.101059
289.846 5.17509 0.120574
155.439 2.61189 0.0768675
156.474 2.0931 0.0614174
257.305 3.78396 0.0807903
222.275 4.0843 0.0917696
206.615 4.01065 0.084736
218.253 4.80523 0.135397
250.207 5.02365 0.145117
128.498 3.0532 0.0961556
91.2321 2.92454 0.0933804
180.513 3.33299 0.0979338
231.874 4.51447 0.124774
275.973 4.51789 0.136314
290.583 5.78937 0.160887
224.348 5.68153 0.188896
82.0756 3.36036 0.0964877
104.832 2.4184 0.0717807
227.255 4.8508 0.178793
88.4942 2.07088 0.0742502
139.203 2.99645 0.110945
159.65 4.02276 0.126966
136.746 3.5489 0.121536
151.801 4.22234 0.160489
174.927 5.69347 0.196327
141.46 4.222 0.148116
157.956 7.47489 0.301158
174.311 6.67276 0.236913
139.837 5.23294 0.194495
72.9684 2.83902 0.120162
163.519 5.55156 0.243248
118.322 6.02903 0.249542
107.194 4.67444 0.210811
67.9421 2.08935 0.112369
109.815 3.14171 0.175556
134.481 5.04948 0.210309
184.078 6.319 0.318948
141.234 4.55819 0.227259
99.7045 4.64689 0.218802
145.101 5.74371 0.299011
101.733 5.42722 0.262531
73.2636 2.83504 0.192498
65.2176 3.38645 0.171804
67.4234 4.08191 0.24864
76.8693 2.40645 0.123686
182.019 7.70622 0.426167
94.8234 6.19788 0.370532
68.2888 4.5847 0.277416
110.421 4.60478 0.276163
51.2834 3.32643 0.209542
79.2258 3.07034 0.169713
64.9763 3.44652 0.204434
49.4914 2.67892 0.192149
112.185 6.61397 0.424934
63.3075 3.15026 0.229171
86.4457 4.04182 0.287451
75.6387 4.14162 0.255705
106.973 5.79756 0.408474
32.5762 2.87472 0.193661
76.5243 5.52828 0.405026
52.8355 2.90686 0.235733
107.481 6.16145 0.425522
70.5969 4.04584 0.327785
41.0968 2.87262 0.24176
67.1979 3.63846 0.302339
37.79 2.59687 0.237877
53.2358 3.91965 0.296592
53.6819 4.67865 0.382028
74.0377 3.43025 0.298198
103.956 5.66017 0.491143
75.7874 5.50682 0.45213
97.3396 7.78436 0.687323
49.8814 2.46869 0.210392
64.5345 5.69967 0.465995
90.4355 5.79492 0.531025
43.7506 1.99135 0.180188
64.5109 5.5909 0.57476
35.729 3.68294 0.383776
59.3696 3.45246 0.292213
49.3368 3.5628 0.345665
65.735 3.59837 0.318467
44.2763 3.6343 0.355368
46.9327 3.52936 0.354897
60.297 5.18485 0.538883
41.0074 3.44398 0.368603
64.056 5.3999 0.559024
58.3009 5.65851 0.64152
54.8315 3.90733 0.401291
41.9251 4.67506 0.556686
49.1737 3.54902 0.413235
66.5685 5.61805 0.661145
47.2569 4.1211 0.447635
40.046 3.18752 0.435295
43.1026 5.04919 0.55814
79.3432 7.00688 0.870608
40.3556 5.72611 0.673015
48.9134 6.79094 0.880082
55.1487 5.44971 0.643288
23.1539 1.86293 0.240757
67.0187 7.71208 0.910917
40.4877 4.0219 0.491493
61.4062 7.45059 0.931582
42.4036 4.29251 0.558808
67.4233 6.84096 0.842417
56.9069 5.58435 0.805672
29.8329 4.80392 0.634417
29.1854 3.157 0.407819
51.1067 5.42843 0.790471
29.1709 3.9875 0.614198
27.3582 3.15532 0.406521
55.6353 5.55015 0.719024
19.3616 2.32315 0.325314
24.113 3.92265 0.601356
30.6463 4.47627 0.61206
57.9098 6.62333 0.997055
23.6868 2.15703 0.328494
31.7802 5.73264 0.912089
50.3789 8.32998 1.21682
56.39 5.75292 0.848904
50.2454 4.98403 0.857667
39.6201 4.8614 0.79007
33.8205 4.6705 0.752354
23.2266 3.54372 0.581126
37.6843 5.18617 0.887912
29.6171 3.54204 0.526347
33.9657 4.39887 0.733327
39.0339 5.51192 0.906433
19.9096 2.82347 0.480992
20.4029 2.68898 0.46358
31.4194 4.20335 0.760422
40.3691 6.16707 1.1599
25.0514 3.69243 0.602383
19.4503 3.20181 0.595243
30.5201 5.37893 0.963214
40.2052 5.59034 1.08784
19.9003 3.24914 0.545436
36.6068 7.1176 1.34233
14.2875 1.64391 0.376717
20.3481 2.62352 0.599608
24.3294 4.38312 0.777919
31.7233 5.9447 1.2696
25.6789 5.33487 0.969122
34.9832 6.85515 1.42296
41.1374 5.91683 1.09101
24.1396 3.21095 0.837851
22.919 4.76054 0.944985
27.4774 4.52336 0.915251
34.2758 7.15874 1.6075
43.1622 5.52382 1.00212
30.2616 4.65193 1.0178
35.5527 5.53452 1.22149
41.6062 5.47431 1.07012
24.7804 3.62709 0.868477
19.4914 3.92534 0.853513
30.3932 3.76231 0.932563
33.4356 7.3936 1.50839
15.0246 3.43868 0.958192
28.1505 4.58989 1.02986
26.276 5.28264 1.25686
43.1455 6.05707 1.35729
23.6952 5.41165 1.30146
37.9634 5.7228 1.34099
16.4556 3.05905 0.794808
22.7654 5.40157 1.20067
52.3541 9.07201 2.1471
17.0756 3.52695 0.869481
13.7377 4.78898 1.23746
21.688 4.64679 1.0769
25.6977 5.60807 1.32213
24.1877 4.58431 1.08774
22.0035 4.99171 1.19489
17.3999 2.89584 0.660505
22.1313 5.98284 1.74944
19.7164 2.92999 0.710116
26.6793 4.06246 0.990699
20.6764 3.63247 0.82369
20.2308 3.70735 1.01613
27.3035 6.67248 1.89263
14.2045 3.36987 0.89372
15.6258 3.42617 0.974967
17.5976 6.43863 1.97594
25.9671 5.23355 1.41514
24.3899 4.67637 1.13495
12.8273 2.84496 0.808792
17.4904 4.81234 1.24898
38.0974 8.78189 2.58313
25.9316 4.30032 1.24783
21.1374 4.38283 1.35187
27.3705 3.5536 0.933787
18.3432 3.52629 1.06584
20.5349 5.55401 1.72876
11.6489 3.22903 1.05079
20.8058 3.39896 0.939982
15.7173 3.91011 1.18086
19.9083 4.01895 1.18841
22.7443 3.85844 1.15049
12.1407 2.6191 0.84408
35.861 7.43714 2.41553
15.7341 5.12246 1.52999
10.939 2.8349 0.883921
21.7231 5.78958 1.82635
20.9942 7.23512 2.34386
17.4323 3.70212 1.28642
14.0218 3.84351 1.48625
14.8555 3.39047 1.11106
15.2042 5.17626 1.66496
18.2282 5.16504 1.67285
22.3938 6.43823 2.19567
15.7489 5.75731 2.00045
18.5444 6.66786 2.43908
15.5501 3.86298 1.43622
15.0694 3.00828 0.954619
13.1924 3.28806 1.09563
8.31711 3.72405 1.49043
12.751 2.63425 0.886133
11.7662 2.1008 0.787821
19.8585 5.09831 1.70116
12.0177 2.42182 0.79602
14.8406 6.16748 2.53304
20.4105 5.14994 1.76246
17.4015 4.82878 1.79992
7.28455 3.66744 1.44207
21.7714 5.62545 2.14996
9.40887 2.58898 1.00965
16.1848 4.75413 1.87066
11.6643 4.64092 1.66775
16.1913 4.79856 1.80342
13.9096 3.9416 1.57457
12.9871 5.06776 2.07784
22.037 7.85279 2.56412
12.0135 5.61878 2.42208
21.1528 5.53779 2.26315
14.1129 4.26672 1.55369
10.2242 4.36004 1.92941
12.0013 4.33071 1.81947
14.8513 4.06835 1.83782
14.6201 4.66673 1.71668
18.1497 6.24595 2.50757
12.3167 3.34744 1.16653
12.1605 4.80448 1.83705
10.9572 3.9569 1.86772
14.2049 4.13739 1.7986
10.7052 5.32176 2.41867
15.3904 4.62457 1.83607
7.84835 3.45706 1.46506
7.18211 2.7449 1.28789
10.007 3.1894 1.3145
10.2769 3.43339 1.60644
12.8674 6.25963 2.88072
24.0378 6.51787 2.42984
9.53925 3.30254 1.71228
8.4949 3.27727 1.73027
7.17853 1.35184 0.539932
18.6612 5.71487 2.67895
13.6763 4.62007 1.82817
11.1391 4.14261 1.74826
8.15649 4.45537 2.42164
14.9551 4.20997 1.97094
10.4755 4.28306 2.07894
16.4152 8.10858 3.8987
10.744 4.99089 3.02952
19.0842 4.8971 2.07899
11.6722 4.70811 1.98905
11.6564 3.95852 2.07254
17.4227 6.3608 2.74812
13.6914 4.05619 2.21752
12.8028 4.82846 2.22055
9.64732 3.93694 1.92065
19.1317 8.87347 4.94563
11.1264 5.76846 2.77179
12.9344 5.45289 2.63976
11.8664 5.24015 2.82206
9.33518 4.95422 2.92829
30.4064 10.6791 5.15424
8.86337 3.1224 1.75292
14.6127 4.51295 2.25623
11.0508 4.44821 2.32345
7.6378 3.66861 2.01232
11.9342 5.28811 2.8452
21.627 7.54802 3.6953
8.67209 4.50186 2.74682
13.6042 4.22948 2.1409
9.25315 3.38185 1.64841
7.42417 2.60502 1.2816
11.7979 4.60782 2.74477
18.6666 8.27565 4.64188
10.8357 4.95924 2.89989
9.91938 4.50082 2.39785
6.75098 2.35615 1.30366
7.60911 3.38549 1.80778
5.23399 2.52099 1.92706
15.6733 5.04974 2.83601
10.5773 8.03216 4.86808
15.0437 4.87885 2.80791
10.4407 5.20595 2.27101
7.89557 4.34897 2.7636
9.79171 4.28192 2.45401
6.79037 3.90846 2.10264
5.55349 4.30862 2.99019
7.86067 2.33107 1.50943
8.88898 4.94401 2.68001
7.09721 4.0446 2.82936
10.429 3.63689 2.10982
11.8449 4.67418 2.79473
9.13086 3.355 1.84899
12.8349 3.93982 2.14564
7.11899 3.51405 2.00897
19.4477 7.99806 5.07906
3.94385 2.66233 2.05297
10.4601 6.40622 4.13489
14.0866 7.5353 4.00775
10.056 3.89536 2.84884
10.4828 5.62085 3.41015
11.0829 5.9929 3.90889
13.6766 6.86834 3.70861
15.4205 7.7801 4.88017
13.857 5.14904 3.44202
8.75111 4.42616 3.05198
8.52182 4.99699 3.34482
12.3405 9.31784 5.69999
5.20814 2.45988 1.58882
9.64198 4.23353 2.95852
13.482 9.29664 6.03113
13.6226 5.60157 4.45971
5.54242 2.42834 1.44686
6.38858 4.39177 3.52123
9.61334 5.40589 3.80302
7.87085 3.37522 1.69562
9.52921 6.30271 4.47769
8.22617 3.75771 2.79983
8.86262 5.25854 3.10099
6.15707 3.39044 2.56155
3.99667 2.50414 1.45063
7.7179 5.63763 4.19179
11.4118 6.44998 4.54473
5.98283 3.44224 2.3171
10.5869 5.80862 4.21966
13.4788 7.98515 5.10353
4.51793 3.73205 3.13643
6.01359 4.50319 3.42554
4.62765 1.0676 0.648454
6.92347 5.92442 4.43449
4.78498 1.41851 1.39172
8.08285 3.65163 2.64338
9.95479 4.79099 3.04545
6.91314 4.62884 3.74609
6.05527 3.24516 2.58678
6.75314 2.91045 1.88629
8.04801 5.23003 3.32203
9.10403 5.28503 4.05698
5.33564 2.1364 1.59285
7.60814 3.47329 3.0745
7.16513 4.45194 3.38443
5.61836 3.78784 2.59434
7.11566 2.767 2.66522
8.24461 3.98236 2.34123
7.38728 4.53538 3.82866
5.5016 4.28272 3.5557
8.60763 3.93911 2.63635
5.82745 3.90176 3.61606
8.05312 3.74031 3.18805
6.96276 4.62779 3.4758
6.61718 5.89163 5.27953
5.58164 3.21399 2.51448
9.58016 6.91884 5.555
9.70517 6.54905 4.78804
9.79401 6.52925 5.19427
6.28885 4.87759 4.72112
10.6635 6.8308 5.28398
5.98006 2.48244 1.89063
8.17222 6.5313 5.97
3.71287 2.16646 2.15972
7.36317 3.85337 2.95867
7.83379 4.41428 3.85751
9.58515 5.91819 4.20437
5.2201 5.37739 5.14241
6.17821 3.90227 3.75004
5.02735 3.43777 2.5107
7.15483 4.56659 3.57978
4.78712 3.92068 3.39462
4.87063 3.41972 3.95401
10.5301 7.40372 6.27876
8.56614 4.31988 3.11819
6.18849 5.28608 4.84652
6.54884 3.2497 2.75479
4.24239 3.17202 2.73377
8.16469 7.49125 7.46139
6.61532 4.29954 2.98632
5.5346 5.10473 4.21031
6.76268 7.10166 6.72413
7.00857 3.11212 3.00209
6.13306 4.30353 4.26311
5.29829 4.54629 4.53593
5.51466 3.67157 4.15781
4.8696 3.33475 2.68242
6.09184 4.43437 4.10513
6.8606 3.61929 3.0446
10.6647 8.40976 6.81045
6.71454 5.91253 6.06286
7.58482 6.1126 5.78992
5.69661 3.82604 4.02851
7.512 4.88546 4.25844
8.09678 5.31739 4.3727
5.09113 4.94419 5.05193
4.41626 4.98049 7.02039
11.6366 7.04027 5.72571
4.37224 3.94267 4.07748
5.32244 3.39362 2.73279
9.23987 8.6905 8.79995
6.59438 5.08155 4.51254
7.00224 5.17177 4.80801
6.30028 3.00111 2.88327
6.52027 5.09982 4.08595
3.14613 2.9164 3.37413
7.72954 5.45194 4.7665
8.10701 5.13013 5.22347
5.2289 5.10522 5.15675
8.61735 5.71105 4.71073
4.39535 3.57639 3.81697
5.01545 5.82069 6.36726
5.55412 5.25443 5.47327
8.55498 5.15493 5.08052
5.73596 3.66451 3.06737
5.0297 3.66415 4.56882
6.44625 3.37635 3.35152
6.57435 6.20896 6.24738
4.07896 2.68879 2.74353
3.937 3.5545 3.38916
7.63229 6.93716 6.74559
9.31552 7.02059 7.63005
4.92611 2.22806 1.6549
4.23045 4.8238 6.63153
6.43143 4.91467 4.95292
6.25167 4.96359 4.63377
3.4478 2.55403 2.97374
5.14404 5.92194 6.5667
2.74935 3.84004 4.18317
5.48145 4.44481 5.29341
4.65294 3.93832 3.99953
2.97377 3.99605 4.56755
3.58443 5.46458 6.59096
5.36846 3.77895 4.49309
4.18212 3.77988 4.75998
7.49642 4.49706 5.04391
5.07699 4.40671 3.1401
3.09627 4.69652 5.95621
5.76676 3.04113 3.19301
4.497 6.90875 8.12775
6.79775 5.69484 6.63299
6.79293 6.67258 7.68181
7.21362 5.22324 6.00905
4.81013 3.32122 3.49036
7.16733 6.41755 8.35302
6.70841 6.80629 7.45949
6.96642 5.16049 5.49835
2.87606 2.71787 3.4422
3.26161 4.19074 4.68306
5.78263 6.22395 7.48101
4.50808 4.50145 6.67207
8.33799 8.37721 6.81278
7.47488 6.61104 7.92835
3.47773 2.49946 3.48493
5.33051 5.43558 7.49323
5.94066 2.9106 2.57788
6.47969 4.57697 4.10041
2.96389 3.6726 5.19679
6.77288 7.13994 8.63937
5.69352 3.23897 4.12509
6.14876 9.45125 13.5445
8.70739 7.23878 5.88395
4.94199 5.30798 7.44193
8.68676 6.86708 8.0611
3.08401 3.96201 5.66937
6.70788 5.85375 7.88509
5.62529 5.02401 7.22432
7.17473 6.07174 5.04026
4.23993 2.97514 4.63015
7.58674 5.15607 5.18332
6.01881 4.20784 5.25717
5.36996 2.91333 2.50918
4.77788 3.26712 4.20684
5.80659 4.97821 4.63452
4.88958 6.80733 8.94129
6.26641 5.83493 7.60745
4.71065 5.21244 7.19877
10.8011 10.6087 13.2594
5.68618 7.82189 12.0875
7.28093 6.66632 8.00151
5.44171 3.25666 3.36434
5.42967 4.45365 5.96774
5.20986 4.53519 5.34629
5.87299 5.41533 7.63365
7.22474 6.87829 7.73305
3.84925 2.911 3.56698
5.22452 5.72004 8.5251
3.01519 5.15483 5.62769
1.51123 1.782 3.27118
5.59473 4.9655 5.63064
2.83583 3.40515 4.2344
4.66211 6.09906 9.5318
5.02775 4.40813 4.38058
2.97528 3.46209 6.98922
5.95802 4.59135 5.10071
5.11279 6.35448 8.39043
6.21777 6.49684 7.32887
5.22627 4.97814 6.64456
6.55227 5.91618 7.9005
5.28055 4.87639 5.82696
4.2098 6.61744 10.923
6.7904 6.3956 8.12724
3.43718 3.23421 4.87878
5.40309 6.66471 9.20146
5.16973 5.47319 6.81792
3.80367 5.96363 9.16165
4.69927 3.23722 3.41206
3.71534 2.96175 4.59453
4.8609 4.42023 7.50228
5.99801 5.52456 5.71031
5.36535 7.10726 10.6833
5.94082 6.65765 8.42332
3.26867 3.09805 4.28577
3.98192 6.27172 9.5334
5.3171 3.66631 5.50616
5.23523 5.81416 8.3813
1.49878 2.55145 3.60046
2.33404 2.39388 3.82092
2.51888 2.9149 5.10876
5.87922 7.20364 7.97142
2.95249 3.21141 5.83702
3.84536 4.8779 10.5597
6.44182 7.99557 9.23
3.82322 5.11705 7.40533
4.65435 7.2276 11.9544
4.95335 4.95015 7.32445
4.39386 3.85328 4.74415
3.14409 2.5139 4.45659
3.85999 3.73144 4.78425
2.02179 2.51633 3.89418
4.0279 4.83577 6.82877
1.39719 2.2343 4.60825
3.41926 3.83309 4.83953
3.16418 4.08368 10.0433
8.48831 8.40083 11.1048
7.1923 10.2547 11.988
3.10766 3.95788 6.29102
2.66565 3.18968 6.77617
7.32542 6.97053 8.81223
3.09275 3.17429 4.67787
5.6277 5.13849 7.20981
2.87268 3.03002 4.52852
2.67689 4.85978 9.0347
4.83602 6.01183 9.91867
3.4866 4.93624 6.83831
3.43646 3.63602 5.67293
3.89359 4.0954 7.98191
4.39898 3.82391 4.7183
2.2542 2.41334 4.49161
4.42356 4.37885 6.5038
4.16872 3.11022 4.02992
3.19205 3.64007 4.97698
5.24729 4.81251 6.85101
5.47906 5.00671 7.64108
2.85321 3.37755 8.3317
6.91873 9.96107 13.4463
3.46813 5.05813 8.71807
4.27129 4.73935 7.23722
5.15705 4.77727 7.84373
5.17245 6.77504 10.769
5.37871 8.47888 13.6257
2.65125 3.44308 5.2506
4.31347 8.11237 15.2065
6.86864 6.49488 8.07784
3.03237 3.78168 6.60454
4.29741 5.99264 10.1407
4.57799 5.942 9.96276
3.65224 5.75722 7.14723
1.9663 3.82435 6.08878
2.03455 3.24139 8.08647
5.72464 6.27318 8.60232
4.34852 5.16343 10.6777
3.72467 2.59026 3.18893
3.5456 3.74258 5.85462
3.51005 7.30485 14.7531
6.09361 8.76225 14.3288
6.5106 6.00084 7.63357
2.98906 4.95167 9.52914
3.71633 5.23405 6.11301
2.34239 5.26011 9.68447
4.01701 6.15107 11.6937
3.00732 2.65865 5.14733
4.45448 5.34834 8.64722
4.47382 5.68043 8.16284
2.69255 2.67491 4.28279
2.69129 6.04346 12.604
3.94153 3.79509 5.42751
3.1374 4.93372 6.95303
4.25191 4.30502 9.08757
4.71509 6.04343 8.86652
4.77905 5.65126 8.1184
3.5097 6.92418 10.8632
3.08418 6.42004 11.2193
2.98804 3.99543 8.36395
1.79673 3.58482 7.51005
3.13948 3.70515 8.91588
4.05086 5.23079 7.91481
3.30922 5.0124 8.64078
2.45766 6.07004 14.24
5.03388 4.73578 9.2336
5.42309 8.14413 11.0413
3.33622 5.03402 11.1047
3.88285 5.24473 9.98022
3.50786 5.68966 9.33378
2.63757 4.429 8.1581
2.2206 4.00617 9.20406
3.95086 5.60271 12.2398
4.08005 6.24639 8.77729
2.31348 3.38758 5.40024
1.49099 5.13124 14.1058
5.10476 6.2511 8.02269
2.25866 3.65028 7.77561
4.68875 6.82268 13.2388
3.25898 2.68368 4.3639
2.97765 5.01644 11.7655
4.89263 7.13739 12.45
3.95602 7.38976 13.8945
2.34716 4.15619 13.5195
6.50753 4.75967 9.06357
5.66084 7.98089 10.8743
2.85102 5.07748 8.10409
2.09565 3.74787 10.9935
5.09712 6.70955 9.41364
3.50451 4.58442 9.2154
4.68111 6.75509 11.5485
3.67752 4.70941 8.78349
5.15644 6.03499 9.70701
2.73586 3.97385 7.16002
3.27996 6.24283 11.6259
4.47507 7.00782 12.4815
2.58619 3.04261 5.87306
1.787 2.00061 4.01464
4.32492 6.64429 10.9578
2.59989 5.43876 12.0445
3.93507 6.44423 11.9296
3.87981 5.73079 8.84881
1.28949 3.18756 9.18528
2.8539 4.0914 9.25546
6.48278 6.1181 10.3504
3.31488 7.17229 13.6937
3.83947 5.04816 10.4122
3.17114 5.74676 13.2665
3.16785 5.92327 10.3803
3.45917 6.82199 10.9371
2.52273 4.45144 9.17112
2.87756 4.27472 9.50464
4.00488 5.94249 11.2123
2.89464 5.64969 13.3169
2.97948 4.0223 6.98149
2.23363 4.20452 8.92413
2.49737 2.64755 7.40384
5.94579 9.12695 13.5991
2.41535 2.86689 7.83043
2.94156 4.31165 7.77052
1.87584 3.03615 5.74289
3.29202 5.56261 9.28472
4.18652 5.44891 8.20616
2.97615 4.43704 10.2135
3.41768 6.37808 13.4775
2.48495 4.08966 10.0262
2.13519 3.57057 7.66334
2.76717 4.63692 11.064
4.15516 5.60409 9.48571
4.82932 9.65398 18.13
4.57502 5.32419 12.9297
3.17298 5.84838 12.8049
3.09765 7.09779 12.7468
2.39059 5.23409 13.4692
3.65903 3.52487 6.48527
3.95843 4.96587 6.2716
2.4342 3.56174 8.55259
1.93851 3.14089 11.3525
4.04199 5.80092 9.26231
3.55247 6.85409 11.5325
3.63259 4.40399 7.60899
2.48935 3.71462 9.18361
3.28789 4.57853 9.8685
3.57717 5.86045 11.6722
3.02126 5.58462 12.2201
2.63048 4.47661 9.36335
2.82053 5.29271 10.5229
2.41927 4.87856 12.5734
2.93065 5.723 11.4239
3.62915 7.01952 18.9591
4.70457 10.0477 18.7049
2.5312 4.99967 13.8483
4.16684 7.74183 19.0651
4.15173 7.18264 12.831
2.83755 8.05007 13.2386
2.49677 4.01866 9.46274
2.60529 4.21237 9.77854
4.01666 8.62774 19.5973
4.12912 5.24998 10.2061
3.47787 7.11115 15.1363
2.10934 3.67775 11.5017
3.17515 8.49598 18.6281
2.56389 3.67416 10.0271
3.45855 3.7099 9.19784
3.26091 9.9618 24.802
4.09285 4.79685 9.34902
3.30572 5.86962 8.48303
1.45385 3.83678 12.7589
4.12065 5.47679 10.2851
2.59666 4.9953 9.48824
2.43011 2.73503 5.20016
2.15687 2.86917 7.09166
3.20647 5.03415 9.59482
3.96816 7.16532 17.3441
3.03592 8.00959 21.5191
2.93688 3.78658 7.84688
3.00686 4.97196 8.71984
1.81382 2.59928 6.40234
2.75072 7.85073 20.557
3.02678 5.39626 10.8849
3.48206 4.85271 10.1885
2.88602 6.20197 14.838
3.55016 8.49158 21.336
2.48775 3.98927 8.66598
2.82677 3.24077 10.7571
3.08027 6.4262 10.0268
1.73824 4.27289 7.72059
2.22375 5.72238 12.2491
2.50882 6.24033 12.0553
2.33685 5.29309 18.7189
5.16007 10.3665 26.8382
5.65952 7.89979 15.0064
2.73056 3.60171 10.064
3.27802 9.21614 23.4174
2.97249 3.71809 7.84597
1.90824 3.42363 8.80286
2.80418 6.6046 15.1636
4.33383 5.11488 10.8948
1.33161 1.94701 9.11465
4.62404 6.60662 8.59956
1.71774 6.03978 14.9167
2.00963 2.97756 10.5425
4.06496 8.52973 15.6837
3.10089 4.953 11.6156
2.55808 3.55141 8.79493
1.9415 2.71427 6.35868
1.56395 3.2533 8.61775
2.53313 4.23895 9.09791
3.06203 6.27752 12.4147
2.65063 4.27694 11.4351
3.7368 5.48619 12.9959
2.81647 6.53045 15.029
2.66736 5.94168 15.2989
3.2758 5.21052 13.1843
2.02548 5.20996 15.4608
3.01052 6.56854 20.4329
3.80133 6.68757 16.8817
4.88984 9.32539 15.3859
3.27935 9.54057 24.6429
3.01885 5.09869 12.286
2.31133 4.64705 8.29247
2.17461 5.5751 13.384
2.35769 3.67712 12.5821
3.11537 5.71401 9.5413
1.1927 3.20662 9.95349
2.41312 4.30014 11.3336
1.82633 3.0434 7.51161
2.4365 6.8685 21.1462
4.28212 5.95553 14.5809
2.97951 5.19107 14.8488
3.33858 7.37189 19.3227
3.12183 4.30443 14.8784
3.61086 7.23917 12.1015
2.18346 4.86061 8.41057
2.97873 4.19866 10.487
1.60604 2.83476 7.20771
2.78575 7.59002 17.3245
3.00814 5.3204 17.2853
3.35038 5.85065 14.6477
3.63635 5.37717 7.40231
2.90297 5.69775 12.2725
2.59297 5.36518 18.1529
2.63517 6.4938 19.5165
2.56503 4.30203 10.3746
2.34839 5.74368 13.9629
3.70707 8.51454 24.0359
3.03871 4.78262 11.1297
2.52127 4.71774 10.8397
2.78514 6.44213 15.8119
2.07332 4.01525 15.1123
3.0163 4.29214 9.66812
2.35278 5.46998 9.80509
2.61509 7.84908 21.356
3.00247 4.91616 11.8112
2.42114 8.79381 18.3606
1.50581 2.57435 8.78939
1.55767 3.89719 13.6682
4.2062 6.9122 16.2606
2.42474 4.22417 10.4075
4.02143 7.99369 20.3302
2.66503 4.22742 9.91083
2.53599 8.81605 25.9029
3.12563 6.21095 19.0726
2.09633 3.16227 14.1013
3.68864 6.13046 13.519
2.7067 5.30051 8.94116
1.37858 3.45926 16.988
2.86093 9.35375 24.0281
3.03851 5.84097 10.4001
1.25697 3.512 13.1949
2.62084 5.22075 14.8496
3.09359 4.61308 9.69252
1.73708 4.03042 14.8252
1.893 2.76266 11.9641
3.4559 6.61604 10.6333
1.72789 5.53232 15.3268
1.34121 5.72607 22.2341
4.05535 5.19821 11.5628
2.48446 4.7962 11.9574
2.28412 3.64871 8.61603
2.0763 5.90796 14.0379
1.77359 6.27069 16.2793
2.3848 4.35864 11.6901
2.24638 3.33527 12.0627
2.44099 5.69795 11.4602
1.66165 4.07535 15.9855
2.01837 3.64454 14.5791
4.3364 7.75048 11.9467
2.46026 5.68099 12.5122
2.22914 5.94288 17.5358
2.33472 6.31322 15.7093
1.98097 6.0798 13.7324
2.09266 4.62781 16.1464
2.6887 8.35482 28.6127
4.07734 7.90887 12.7154
1.6791 6.03612 28.2983
4.45152 6.64679 10.0566
3.6046 9.65855 21.1377
2.61383 4.71092 18.3821
3.32433 6.56089 15.2364
1.4263 2.13234 7.89006
3.24945 6.6588 18.5789
3.20908 6.76376 16.9719
2.05743 4.73287 10.2302
1.4166 6.37081 24.1482
3.32216 5.39697 9.60597
1.16374 4.46225 13.6716
2.25752 6.31834 21.2633
2.05348 3.02908 15.0817
4.68543 8.42055 15.7755
2.44545 4.60032 11.1806
1.54474 3.4979 12.2735
1.90769 5.94329 17.3286
2.32741 7.00912 26.1281
3.78391 7.42674 18.3673
3.54471 6.82426 15.176
3.37784 10.361 24.9909
2.56934 7.4814 24.8888
2.86763 5.45266 17.7007
2.47157 5.8376 17.5621
3.05135 8.36989 28.0554
3.22336 6.79908 12.1116
1.73406 7.11155 28.0005
4.0395 6.48531 14.9257
2.11253 3.36639 8.5226
2.3202 7.79552 28.4446
2.24621 4.26687 12.4241
2.26854 7.09154 19.3466
3.53219 7.03275 17.2724
2.29083 4.82523 19.317
2.03362 4.28509 9.68512
1.98759 4.3275 20.0533
2.85029 6.559 12.7564
1.56383 4.3373 16.9832
4.25876 10.1721 19.4083
2.59543 4.82269 18.7271
4.41068 13.1216 28.2705
3.17072 9.34798 25.0593
1.53588 3.35572 18.5703
3.33173 7.92762 20.3216
1.9196 3.86567 14.8119
3.17563 10.5148 35.7911
3.31062 4.52817 10.5924
1.77912 4.78949 16.1551
3.70504 9.64947 25.4134
2.22706 5.55457 17.0823
2.71123 7.48575 24.0069
3.30236 5.70277 13.7775
1.96529 5.26081 16.6359
2.28763 6.03762 16.796
2.35523 8.03305 23.4656
2.66165 5.33869 10.5387
1.88622 7.27457 24.6539
2.51816 7.25143 24.1351
3.96067 7.40652 13.0515
1.37832 4.98886 16.1386
1.75381 2.02566 8.90215
1.87164 5.34992 23.3923
4.02124 9.22109 20.1428
2.111 4.12156 17.349
2.29153 3.91311 10.5168
2.25365 7.83696 21.523
2.57818 4.39896 17.0136
1.98059 6.54187 17.8381
2.49631 6.26099 18.7226
1.95224 6.32838 25.6847
3.25832 8.63716 21.1847
1.74586 6.75428 26.0206
2.82254 6.47074 14.0936
1.85943 5.94888 22.5883
2.82785 4.89012 14.9082
2.62121 5.66483 16.2062
1.80336 5.3145 17.4451
1.73609 4.76453 15.7619
2.79757 7.28983 17.8554
2.16987 6.98372 20.7963
2.03123 5.45298 13.1803
2.3242 4.45269 18.0712
3.67028 8.9951 19.1387
2.77387 11.1208 35.0021
2.49643 4.15239 22.016
2.08869 3.97812 14.0456
1.94446 5.69371 20.8033
2.58635 5.23797 9.54172
1.72536 4.43406 18.7872
2.79556 5.51573 12.3387
1.41828 8.30175 25.9595
2.21098 4.3031 24.6648
3.09607 7.05219 13.0859
1.77329 6.69384 26.1191
2.73632 4.329 9.41472
1.38388 4.21422 15.4958
2.00725 6.51171 20.293
1.91078 5.05122 15.7552
2.08282 8.77363 31.2287
3.10155 4.72491 12.2771
2.1672 6.33408 15.1774
1.27235 8.08819 30.2547
3.10387 7.99096 36.4082
4.67687 6.3627 18.6472
3.79246 8.88734 18.9077
2.2501 7.60506 25.6352
2.84502 6.7022 29.4026
3.03513 7.22188 22.2549
3.34664 6.97148 17.4707
2.1497 8.02466 20.384
1.93016 9.15992 30.747
2.99117 6.88072 20.5031
2.28927 6.81817 17.369
1.49121 6.06712 13.4047
1.6367 6.19511 25.8391
2.01855 4.66439 17.2399
2.42268 6.29511 18.4787
3.00491 8.48548 20.9583
1.8078 4.75039 17.6563
2.94919 5.12061 11.4595
1.60213 6.11349 23.6725
2.72799 5.84594 21.8244
2.35458 6.41863 21.4483
2.56553 6.97159 10.4656
1.06811 3.39489 15.7657
2.5072 4.31366 14.9996
2.75289 10.2273 31.2514
2.55955 4.89601 14.9604
2.06922 5.53021 22.4205
2.52833 4.08958 13.1007
1.83754 2.99321 11.0581
1.31203 4.60923 16.056
2.31902 3.43654 8.71293
1.7267 4.90365 12.8119
2.18127 4.08629 17.8912
2.88077 5.64203 16.3044
2.26685 6.87071 19.0949
1.25456 6.41063 18.3485
1.70158 3.36889 15.6478
1.9183 5.84784 18.0014
1.88848 6.84149 21.8091
1.38983 3.10883 11.8302
1.1167 4.37966 28.4614
4.14353 8.01177 19.065
2.15509 6.93969 31.6006
2.92867 6.50072 15.1465
1.74429 3.50254 6.66029
0.755958 2.32939 14.0951
2.54129 10.3732 35.5775
2.46109 4.37295 14.1171
1.43134 7.14511 24.035
2.66624 6.88862 14.9456
1.31696 8.54505 27.623
2.25626 5.4367 23.2973
2.3968 5.02416 13.3796
2.23198 6.96535 27.7631
3.63702 8.06466 27.8949
2.30889 7.82358 23.6495
1.76259 5.79339 16.0801
1.52472 7.66142 25.4443
2.77384 6.57787 23.231
2.82647 7.77772 27.6825
3.92379 9.39574 32.3936
3.06472 8.8839 17.5678
2.14434 9.49994 35.8853
2.14727 6.75265 22.545
2.38602 7.20038 20.9835
1.30883 3.9248 14.3251
1.82939 4.88269 21.0062
1.6027 3.72195 16.8635
3.13205 7.61684 22.9648
2.58745 8.45516 21.2254
1.31535 3.75685 18.5217
1.81914 3.70671 9.10139
1.25003 2.72188 16.2883
1.81842 5.34358 15.0559
2.26957 4.89748 15.5125
1.07399 2.52326 22.1844
3.11419 5.7897 12.4943
1.98021 8.32646 16.7357
1.18048 6.50593 27.0052
2.13318 6.29798 24.0205
1.8592 4.47781 16.4154
2.08773 6.70786 27.329
2.4554 6.80467 18.7148
1.40148 5.2282 18.9644
2.17794 4.38716 9.47269
0.895699 5.56811 22.0126
2.11099 3.84012 19.6106
2.55519 8.2174 23.2982
1.90139 4.41979 19.4408
2.22102 8.29313 22.7099
1.75284 4.11861 20.6738
2.75701 6.21451 20.4246
2.56522 7.39711 19.5068
1.89783 3.89769 19.0349
2.63326 5.62206 18.7603
1.70473 4.58307 12.5688
1.23647 4.41683 16.26
1.54049 6.3159 24.7303
3.0003 4.81658 11.6589
1.5631 6.42908 28.4365
3.14145 7.79557 18.83
1.40871 4.68988 12.6576
1.16325 3.30666 15.0815
1.57929 4.76924 19.263
1.94383 5.86513 20.6813
2.01303 7.10026 22.087
1.74702 5.40481 34.278
2.98235 7.60888 19.9129
2.91666 9.48204 22.4303
1.03125 4.77734 23.6784
2.54664 3.74026 13.4824
2.02913 5.81024 20.2154
1.3625 2.84778 12.5505
1.27539 5.71727 21.4383
2.1292 2.84476 14.6429
2.71615 7.81378 15.1135
1.10486 4.42822 20.5616
1.54253 7.72136 40.4963
2.89064 3.72667 18.3866
2.48243 5.25143 12.6348
1.13039 5.33908 19.5579
1.8103 9.80019 31.2931
2.81176 4.95454 18.9486
2.62247 8.23926 16.1759
1.34667 4.44293 21.5549
1.985 4.63765 15.7017
1.64608 2.99802 13.6755
2.32863 8.16763 26.458
2.16816 5.53374 21.5214
2.62948 7.57725 33.8191
3.06674 13.5343 44.1339
3.16169 6.40048 12.7409
0.974182 5.59825 28.056
2.70648 3.20388 10.8048
1.91767 6.45813 26.0242
2.28583 6.75866 29.618
2.70462 9.4024 26.7651
2.45919 6.16122 22.617
2.70897 10.8108 34.6532
2.29032 8.7155 49.615
3.91454 11.0039 33.6204
3.23449 6.80212 17.5427
2.03608 6.80188 13.7262
1.26972 4.90322 15.0228
1.29001 5.37006 30.9091
3.47213 8.19198 16.3835
1.06064 7.32708 32.6145
3.07713 5.91685 18.6014
2.38213 6.96918 27.5706
2.26303 11.4293 36.8671
2.33119 4.78937 28.1183
2.76666 10.5782 35.0031
2.51428 5.63151 14.9062
1.43272 5.9149 19.1279
2.05057 4.40987 17.9597
2.02436 6.13101 29.4324
2.24235 4.57614 10.2141
1.31793 8.50966 34.5746
2.8222 5.62807 13.9704
1.25189 6.0348 33.6342
3.58776 7.02685 19.168
1.82446 9.33998 30.6694
2.40857 5.54717 22.3557
2.06984 6.41631 14.4077
1.4262 7.75802 31.819
1.98075 6.36041 34.2554
2.83703 7.49046 17.3244
1.69899 4.89757 19.9148
1.2768 4.30662 15.199
1.57577 5.34669 25.0773
2.06939 6.83551 27.5161
2.72035 5.99329 18.6249
2.18641 7.44625 36.3003
2.98488 4.39338 13.3407
1.89402 5.76696 13.6233
1.11725 6.06525 25.155
1.77459 5.31434 30.3876
3.25073 9.98097 20.286
1.80281 4.61004 23.0357
2.16153 4.55429 17.3773
2.4885 10.9074 41.359
2.66509 5.85608 12.9401
1.3804 5.68458 24.3728
1.79412 5.87461 23.9293
1.94085 5.62344 20.3994
1.97599 5.69399 26.3367
2.30988 6.72457 30.1589
2.45074 7.34975 26.5319
1.75547 6.39842 23.3116
2.31104 10.9182 30.3185
2.07791 6.19576 45.1631
4.52147 13.8311 21.6569
1.73625 10.2695 43.7443
3.21207 6.77055 28.4913
2.57061 11.7135 29.9042
1.89232 4.65424 19.3858
1.97271 5.24167 13.7848
1.39793 9.06589 45.2872
3.11592 5.55275 34.376
3.11997 4.93135 9.18903
1.70336 8.67316 29.726
2.18404 9.26744 34.4204
2.59441 4.62095 16.9403
1.84449 7.42862 19.419
1.48872 6.50493 22.0884
1.30526 4.98206 26.3708
2.04014 5.11705 12.0749
0.796649 6.25272 30.3758
2.13933 4.08017 12.6741
1.20285 3.79554 22.9603
2.3805 6.0087 17.376
1.45401 4.37416 20.4327
1.34605 5.00105 14.0478
1.16901 4.19384 20.8372
1.74855 5.47734 18.5806
1.01328 3.57032 16.7728
1.4535 4.80171 20.0244
1.63371 6.69702 22.7102
1.77606 9.65378 36.5169
2.92445 3.5041 31.0563
3.29756 12.3396 32.8669
2.10429 7.4632 26.8344
2.02542 6.18023 31.7076
2.28491 6.5139 18.3184
1.61513 7.84549 40.0625
2.94623 7.3956 26.594
2.15315 7.76099 40.8437
3.50673 8.60324 21.851
2.2344 9.11666 26.7342
1.71137 9.06417 24.1355
1.7109 2.72167 14.6567
1.41173 6.23451 27.5814
2.27581 8.40075 37.305
2.40265 5.17023 11.9494
1.3116 6.70068 19.5334
0.877594 4.36564 21.3539
1.30347 5.47291 16.7156
1.29187 3.39005 16.3566
1.38339 4.52571 23.7235
2.28055 7.20314 23.6755
1.93359 4.99546 16.3768
1.39057 4.38231 18.0081
1.3842 4.62471 17.5686
0.945995 3.57556 31.6145
2.83002 8.18372 19.0311
1.92346 9.37535 38.472
2.28137 4.97103 35.325
3.51237 9.02311 14.1953
1.30651 4.20288 24.9883
2.50498 5.80511 13.77
0.95507 6.52853 34.7053
2.47827 5.09755 12.4419
1.02566 7.38101 24.9462
1.68519 5.48918 25.277
1.29067 3.78858 8.9476
0.733905 4.65848 17.0759
1.52611 3.96262 31.4508
3.11457 11.577 32.7434
1.87934 6.40454 22.4005
1.49656 5.27468 18.9126
1.2184 4.29443 20.7704
1.618 6.14591 28.6975
3.2257 9.61603 31.1074
1.98277 10.3974 36.4232
2.61364 4.49828 33.5982
3.19587 9.94077 33.5715
2.42735 6.1194 42.9411
2.9485 8.26855 29.6888
2.55364 15.2824 37.0237
2.2676 4.5625 25.2709
2.35601 4.82212 16.0955
1.71903 6.01354 21.1639
1.7218 7.5332 37.5051
2.98668 7.43826 19.3148
1.66311 5.60783 16.8513
1.37965 4.85734 29.4152
1.90335 7.72939 30.9426
2.69815 5.49546 11.9348
0.871177 6.04249 17.9202
1.51576 2.19292 12.6165
1.28936 4.20963 27.191
2.19708 8.63535 19.718
2.03246 12.3527 67.4134
4.37132 9.20906 20.5773
1.61009 6.30439 22.9394
1.46353 8.00906 29.9238
1.70227 4.54709 31.0046
2.07294 9.81352 58.3728
4.15173 13.2468 23.898
1.98349 9.75625 29.8451
2.58657 7.40294 36.2218
2.90466 6.70198 16.0046
1.33522 4.44085 34.4172
2.06277 6.66111 22.0271
1.26741 6.21837 28.4715
2.60005 6.60724 20.8533
1.21804 3.16162 12.7143
0.691379 5.2975 22.1248
1.76708 6.1881 33.9157
2.02652 4.91258 17.124
1.79509 10.1221 28.3701
1.27635 3.20045 19.9781
1.46647 5.39137 13.9163
1.10392 7.51228 34.9209
2.6845 6.65264 18.7591
1.54118 3.68049 27.8131
1.91539 7.00087 28.2488
2.37111 5.54032 14.3939
1.40188 8.26932 30.9111
1.81083 6.00474 16.3197
1.08451 4.87086 34.158
2.69573 9.59219 32.7669
1.84027 4.93769 28.4628
2.37719 7.58638 14.2185
1.26196 7.46508 14.8518
1.38701 7.56326 44.3333
2.65499 8.31499 28.9606
2.36229 6.78766 21.8932
1.51546 2.99084 15.259
1.11112 5.96373 32.5764
2.25562 7.7529 18.3316
2.00703 4.34528 24.5498
1.61483 8.48501 24.2703
1.94201 4.37595 26.6009
1.96955 7.40105 28.981
2.1165 3.27523 14.827
1.26288 6.973 25.6938
1.91429 7.30512 30.3529
2.22728 6.81552 31.3863
2.69253 7.78705 18.4358
1.90568 7.4014 33.2636
2.18476 6.05272 45.869
3.67911 11.1343 31.2707
2.39808 4.34554 22.9008
1.61658 9.61369 27.2991
2.11237 8.48235 31.642
2.27781 4.59097 17.314
1.20152 7.49771 33.0963
2.84345 6.36267 17.0405
1.93363 5.24045 18.7117
1.37645 6.95755 20.2613
1.30403 10.548 44.4777
2.61518 7.40571 41.5168
2.67694 6.16696 22.1057
1.379 5.72072 21.0971
0.983648 5.05252 17.2467
1.23074 4.86761 28.6245
2.13018 7.9537 28.4052
1.86129 5.35599 23.52
1.70901 7.95229 20.0254
1.40198 6.60415 38.5758
3.12351 8.88492 34.7851
2.49404 9.91515 32.2272
2.58925 9.8152 31.4012
1.91753 5.00333 19.7352
1.64945 8.93556 26.4046
1.8924 4.29071 20.5364
1.56816 5.50847 24.9296
1.90244 6.39313 25.8633
1.77084 6.16929 28.4297
2.85284 5.81532 18.7524
1.77245 12.7181 65.5973
3.87683 12.0817 30.4214
1.99967 2.28528 35.0395
3.06957 11.4199 13.4293
0.882029 4.01638 28.8418
2.20188 7.14487 21.15
1.28151 6.74685 29.469
2.32358 4.86226 35.4298
2.6119 9.76906 33.7487
2.18956 7.29457 36.4568
3.24609 10.0833 23.7239
1.69668 4.64925 15.719
1.19375 5.11387 25.0059
1.86934 5.41202 26.5608
2.10353 6.91927 24.3055
2.1472 9.98054 40.2539
2.82664 4.95581 26.0666
2.34311 11.7629 37.991
2.17506 7.42195 30.5885
1.84541 5.67077 23.3092
1.95723 6.40942 23.9175
1.59276 5.94657 22.4406
2.28235 8.10444 27.2802
1.31647 5.16491 33.6148
2.41696 8.27641 14.4026
0.994482 4.27497 38.2707
2.42667 5.58269 10.0114
0.675043 4.80336 30.1344
2.51781 5.75734 23.0069
2.17844 9.35612 22.7922
1.76729 5.2575 19.9256
1.47538 2.33574 15.5551
1.22877 5.30396 26.0573
2.07995 7.31681 17.2793
0.715535 6.8928 37.2921
3.49972 5.03223 31.8078
2.59556 7.45489 31.1569
2.59645 12.5366 35.515
2.25418 6.12924 29.9185
2.22413 8.05977 28.5723
1.4453 6.58694 23.7342
1.80151 7.66174 26.561
2.12505 7.07508 25.4518
2.20311 6.16795 47.0875
3.65211 12.7242 25.2211
1.53855 5.91845 29.9711
1.69346 9.10979 34.4728
2.69505 3.68781 22.3513
1.97468 5.45583 19.1778
1.29577 6.8995 38.0539
2.5941 9.40815 19.2334
1.73965 6.53836 36.9492
2.46357 6.48527 26.1141
2.10769 5.30747 20.3609
1.39 6.2811 27.5542
1.83567 4.8792 13.3652
0.90693 8.56388 35.3143
2.36978 4.74765 30.2059
2.30792 9.69964 41.9886
2.82799 9.78001 21.8953
1.79836 3.60042 16.1426
1.7761 5.22003 25.9332
2.19108 7.09466 19.2985
1.47975 5.65255 15.964
1.26517 3.45801 27.0506
2.24528 3.35987 18.2839
1.70024 8.33785 26.8775
1.75039 4.80996 24.8429
1.77067 6.87158 17.1195
1.54827 3.64147 14.4199
0.74816 4.54251 19.5682
0.872633 5.39602 31.9412
2.24631 8.28636 32.4136
2.66608 5.30412 26.1286
1.8509 9.07895 22.1202
1.62775 8.49858 54.8448
3.09167 0 0