# pn-170911/RbIIA-23-AMC2-1280-1959.psd
# Power spectrum* (dif=0,1,2) (really just |FT|^2)
# NOTE: only the first half! (symmetric)
# weeks: 1280-1959
# 383 clock-days, 73 excluded
# PSD: 1441
4546.57 0.561476 0.00222911
378084 1.74194 0.00121941
3.18687e+06 75.0682 0.00264004
83089.5 2.01541 0.00126399
75417.4 4.66263 0.0015612
27815.8 1.57834 0.00133621
20273.2 1.86341 0.00149383
13437.6 1.4764 0.00151967
12456.9 1.86358 0.00180335
8069.38 1.32899 0.00174705
6762.99 1.43905 0.00181396
5339.81 1.22494 0.00197076
4673.95 1.36763 0.00207149
3806.9 1.35512 0.00233089
3262.28 1.216 0.00231776
2916.5 1.32209 0.00252575
2799.7 1.41942 0.00298167
2278.25 1.33489 0.00308337
2105.84 1.30028 0.00325065
1843.82 1.3474 0.00367112
1569.39 1.33678 0.00390888
1447.98 1.29447 0.00402462
1394.23 1.42131 0.00476106
1220.59 1.21771 0.00430055
1126.82 1.2748 0.00456239
1000.82 1.21837 0.0047716
964.003 1.09526 0.00464513
863.495 1.21862 0.00537042
826.135 1.33785 0.00611776
775.084 1.37631 0.0065009
745.937 1.36175 0.00721503
755.759 1.38404 0.007737
706.36 1.46001 0.00820537
615.474 1.45778 0.00841913
536.068 1.25682 0.00814955
561.231 1.30897 0.0087588
513.048 1.34879 0.00953165
462.006 1.29596 0.00960473
446.535 1.31693 0.0098196
437.102 1.27086 0.010183
405.032 1.20911 0.0103136
387.567 1.34322 0.0119027
385.454 1.26772 0.0118921
348.423 1.23976 0.0121425
321.851 1.17815 0.0121047
335.693 1.25429 0.0129694
299.81 1.26082 0.0140774
285.025 1.28002 0.0154378
293.176 1.32088 0.0161513
265.266 1.29409 0.0158897
262.033 1.2946 0.016542
255.718 1.23461 0.0166366
239.042 1.27254 0.0174796
236.709 1.38115 0.0195776
252.849 1.46236 0.0216222
209.101 1.2643 0.0188956
203.848 1.23476 0.0200404
210.879 1.32026 0.0219108
191.009 1.40168 0.0236193
172.123 1.23584 0.0216201
186.378 1.36026 0.0239493
193.192 1.32088 0.0238716
159.838 1.24791 0.0232823
163.286 1.22411 0.0241809
164.472 1.35647 0.0279642
163.181 1.34498 0.028707
141.631 1.25993 0.0275604
145.156 1.24841 0.0275878
134.154 1.29737 0.0301707
142.988 1.3368 0.0312358
129.17 1.19659 0.0294329
119.609 1.29171 0.0325563
128.531 1.28428 0.0324066
119.456 1.28015 0.033132
121.027 1.32715 0.0362888
117.75 1.3487 0.0362918
114.944 1.30722 0.0366178
107.553 1.29416 0.0378308
108.924 1.3792 0.0406227
104.8 1.3068 0.0395373
101.618 1.19501 0.0378079
98.5004 1.35013 0.0429669
97.1703 1.34474 0.0445499
93.378 1.25443 0.0422072
84.6266 1.26055 0.043235
90.0516 1.32866 0.0472719
90.5503 1.38389 0.0496391
89.664 1.42744 0.0521934
83.5046 1.31305 0.0495811
83.2969 1.36958 0.0525297
85.8261 1.38417 0.0547161
78.8844 1.26281 0.0514078
73.0411 1.31916 0.05407
75.2198 1.32975 0.0560732
70.18 1.34316 0.0561847
75.2905 1.31374 0.0578466
72.6329 1.28308 0.056818
67.5723 1.15561 0.0535815
65.3424 1.34041 0.0616181
64.7057 1.26565 0.0614446
67.124 1.27613 0.0606817
64.2937 1.25075 0.059994
69.715 1.38004 0.0703855
61.3875 1.316 0.0684946
63.8347 1.34765 0.0698718
57.4424 1.3619 0.0715901
54.55 1.21342 0.066086
58.9694 1.27516 0.0688273
57.3429 1.37966 0.0774863
58.3091 1.35025 0.0775493
54.251 1.34756 0.0776541
56.0106 1.35469 0.0815467
52.8742 1.39256 0.083738
54.5161 1.36865 0.0844197
48.9126 1.28771 0.0793135
52.9787 1.43466 0.0914551
50.7561 1.40025 0.0901494
47.9887 1.3766 0.0911365
46.4766 1.28795 0.0857077
46.4103 1.23108 0.0842464
44.7521 1.30937 0.0912813
44.7603 1.33582 0.0916445
46.8204 1.30345 0.0925866
45.2425 1.43631 0.103836
43.9946 1.27646 0.0948752
41.1376 1.28171 0.0961784
42.9568 1.28999 0.0976662
43.4908 1.45689 0.114134
41.2309 1.26979 0.0992603
37.6047 1.31064 0.103603
39.0239 1.25957 0.101538
39.1046 1.28489 0.106162
39.8659 1.33985 0.111435
37.3615 1.30137 0.110432
37.2992 1.26512 0.107831
34.3744 1.19821 0.105164
35.388 1.24023 0.107903
34.6565 1.27477 0.11474
36.1797 1.33931 0.12371
33.8019 1.3933 0.129168
33.7803 1.29458 0.121211
34.9239 1.31945 0.125513
33.4673 1.43813 0.138595
33.8031 1.37538 0.134213
34.0499 1.4153 0.138378
30.8064 1.33297 0.134415
31.2293 1.41305 0.145529
29.5514 1.20934 0.12367
30.4507 1.25512 0.131433
29.6726 1.40223 0.1482
28.5632 1.25602 0.134039
30.2109 1.29661 0.141112
29.5113 1.38244 0.149736
25.9044 1.31725 0.147906
28.4228 1.3728 0.155829
28.2443 1.32089 0.152587
26.1233 1.30363 0.148654
26.1991 1.35471 0.158131
26.5828 1.27246 0.152831
26.0399 1.30924 0.157168
27.2376 1.45684 0.17547
26.6156 1.36793 0.169829
25.0433 1.24804 0.15419
24.5355 1.36049 0.172217
25.4648 1.35143 0.172044
26.2324 1.30044 0.168901
23.6081 1.34488 0.174434
23.0829 1.21853 0.159765
23.6879 1.36105 0.183437
22.8939 1.43798 0.193401
23.9136 1.4864 0.201206
22.0945 1.44014 0.199605
24.199 1.35626 0.196682
22.2423 1.32963 0.185334
21.1345 1.25692 0.182566
22.6442 1.54049 0.226902
21.367 1.36555 0.198302
20.5484 1.29317 0.194528
23.5495 1.51942 0.228333
20.4998 1.48048 0.22438
22.2527 1.37433 0.211345
20.4112 1.33975 0.203755
20.1622 1.25407 0.198082
19.6498 1.417 0.223541
20.1405 1.3605 0.213805
20.2348 1.43584 0.232117
19.4983 1.29408 0.214206
18.8702 1.36792 0.227701
19.362 1.24075 0.207623
19.8606 1.44688 0.240405
19.1583 1.38245 0.237049
17.7239 1.3256 0.225572
18.1643 1.3114 0.229891
18.4712 1.26793 0.220509
16.8714 1.32909 0.236663
17.4542 1.47641 0.263043
18.0251 1.45343 0.259703
16.9775 1.51172 0.277697
18.2502 1.50195 0.278277
17.0178 1.42779 0.263097
16.2 1.33333 0.250402
16.2868 1.32694 0.254548
16.903 1.43575 0.273374
15.0909 1.33911 0.259793
16.5613 1.38368 0.272886
16.5191 1.34526 0.268836
16.2149 1.42571 0.283692
15.5689 1.39622 0.283603
16.2611 1.49001 0.29842
14.4068 1.33959 0.27985
13.7568 1.15535 0.238951
14.6248 1.29243 0.27406
14.6656 1.47671 0.311297
15.592 1.35202 0.288537
15.0892 1.43214 0.31083
15.2064 1.34976 0.293809
14.6598 1.34991 0.289416
14.7255 1.44136 0.318522
14.9917 1.47183 0.32573
13.9059 1.30789 0.295624
13.5998 1.18289 0.268507
14.4713 1.35691 0.311191
14.2683 1.36797 0.317045
14.3128 1.38495 0.321068
13.6182 1.38291 0.329929
13.3803 1.43596 0.335208
12.3149 1.35823 0.332396
12.9669 1.33945 0.321827
13.4715 1.43719 0.353232
12.8563 1.37045 0.338329
14.0652 1.58953 0.388428
11.8143 1.20964 0.299582
12.8795 1.36103 0.347277
12.4596 1.43114 0.358852
12.236 1.27089 0.328801
12.7423 1.34848 0.342176
12.8379 1.41183 0.368265
12.3806 1.39686 0.368608
11.9537 1.35432 0.360087
12.4943 1.38864 0.369291
12.3385 1.37396 0.371033
12.1397 1.27861 0.348662
11.7326 1.3822 0.384739
11.0801 1.35727 0.365974
11.4726 1.44676 0.39458
11.7951 1.42894 0.39523
11.3064 1.36438 0.386789
11.9848 1.46878 0.420751
11.4705 1.4264 0.407313
10.8185 1.38853 0.40912
11.1132 1.41733 0.405138
11.1648 1.43754 0.417107
10.6365 1.31831 0.388158
10.8364 1.4377 0.440525
10.7171 1.30658 0.385796
10.3688 1.42365 0.43645
10.372 1.32308 0.406022
10.123 1.46254 0.449386
10.5404 1.39359 0.420385
10.1809 1.50615 0.47388
10.1479 1.34312 0.413839
9.98443 1.30611 0.41318
10.0541 1.45458 0.464753
10.361 1.45599 0.466271
9.89092 1.44042 0.464687
9.78212 1.36532 0.449427
9.79114 1.37907 0.453277
9.27625 1.37248 0.451909
9.50771 1.3686 0.453767
9.09011 1.32157 0.43763
10.2856 1.5606 0.521278
9.13652 1.40993 0.481556
9.43353 1.48438 0.513719
10.2492 1.51484 0.52668
9.70782 1.517 0.525344
9.18777 1.40872 0.490364
8.57838 1.37176 0.483305
8.64217 1.32465 0.473135
8.61311 1.30415 0.464653
8.67795 1.26591 0.45716
9.41966 1.52859 0.555721
8.17074 1.35525 0.49905
8.80805 1.35084 0.497368
8.5943 1.45253 0.554371
8.55683 1.39028 0.509044
8.2098 1.50861 0.561918
8.71494 1.37221 0.517067
8.77218 1.60395 0.598867
8.72906 1.50219 0.579346
8.92675 1.46235 0.561886
8.19894 1.45643 0.566122
8.66828 1.67376 0.654818
8.01581 1.36519 0.536662
7.74713 1.34079 0.52383
8.21593 1.43788 0.581279
7.80387 1.42786 0.587184
8.19392 1.44232 0.570402
7.89169 1.46257 0.603008
7.41073 1.38423 0.561923
7.52448 1.44966 0.595136
7.32831 1.39894 0.583338
7.86494 1.46136 0.598274
7.83496 1.46655 0.624851
7.41289 1.37884 0.580539
7.25842 1.4621 0.627649
7.6037 1.44202 0.615243
7.92628 1.47944 0.61654
7.81791 1.42309 0.607897
7.56111 1.49974 0.654047
7.32749 1.39456 0.611948
7.51021 1.46398 0.660194
7.64363 1.63285 0.70583
7.27443 1.38207 0.620188
6.80991 1.41125 0.64058
6.7714 1.34784 0.602719
7.16038 1.33721 0.593613
7.12681 1.43958 0.65455
7.3666 1.39474 0.640693
7.07826 1.44668 0.67774
7.18284 1.34554 0.629337
6.51783 1.26076 0.603483
6.82834 1.38522 0.660282
7.05725 1.47531 0.683961
6.8083 1.38757 0.67566
6.80044 1.50679 0.707741
6.69368 1.41304 0.688128
6.55237 1.55903 0.76664
7.0107 1.43209 0.69878
6.90463 1.36014 0.66695
6.94383 1.46184 0.712554
6.36089 1.36015 0.674932
6.01295 1.30001 0.65006
6.12011 1.25241 0.633952
6.25379 1.4638 0.764911
6.26789 1.48 0.745113
6.64113 1.41668 0.718746
6.03089 1.35561 0.709497
6.51009 1.48464 0.762155
5.98368 1.38429 0.736373
6.06245 1.36723 0.722675
6.22859 1.48665 0.77033
6.04163 1.44263 0.75314
6.09639 1.36772 0.725634
6.39987 1.54286 0.83207
6.11709 1.49649 0.788616
6.19495 1.45865 0.795282
6.27137 1.48444 0.79444
5.7182 1.41353 0.765245
5.71823 1.39049 0.768106
5.78082 1.37424 0.781845
5.87003 1.43226 0.784219
5.41349 1.42433 0.793338
6.20273 1.54602 0.859236
5.45244 1.30762 0.737146
6.1533 1.64522 0.940371
6.03359 1.49374 0.857177
5.42846 1.3849 0.788593
5.60073 1.42819 0.827402
5.41329 1.34862 0.808437
5.89973 1.60865 0.925836
5.19846 1.36949 0.819014
5.98485 1.53872 0.896657
5.53174 1.51008 0.897404
5.70211 1.43588 0.847495
5.78334 1.44881 0.883287
5.0784 1.34389 0.810117
5.16252 1.36717 0.814996
5.51103 1.48799 0.907234
5.22214 1.43699 0.889482
5.0537 1.46466 0.916392
5.31781 1.3938 0.857605
5.4863 1.54964 0.936107
5.36236 1.4673 0.928974
5.36185 1.43698 0.879083
5.4065 1.43567 0.919652
5.24787 1.4533 0.940073
5.12405 1.41938 0.871974
5.25223 1.52329 0.973668
4.91894 1.42796 0.912108
4.92564 1.54002 1.00854
5.15014 1.47514 0.943736
4.87849 1.44301 0.951633
5.05097 1.68946 1.09807
4.76162 1.40138 0.945594
4.95849 1.38714 0.913098
5.02509 1.53362 1.02695
5.0794 1.47342 0.994528
4.79305 1.50366 1.00651
4.98881 1.44372 0.962981
4.88205 1.39195 0.934976
4.42023 1.26938 0.866047
4.21345 1.37242 0.937775
4.90342 1.42994 0.979921
4.78384 1.33949 0.917128
4.45166 1.47913 1.02692
4.92389 1.51565 1.06962
4.67339 1.45197 1.01382
4.98879 1.40846 0.987885
4.54779 1.39836 0.996757
4.49439 1.54078 1.11288
4.51879 1.53298 1.10929
4.51569 1.44711 1.0495
4.56565 1.40322 1.04203
4.40594 1.59339 1.13424
4.67049 1.54752 1.1438
4.34401 1.36823 1.00496
4.4001 1.47368 1.07275
4.22822 1.43908 1.05694
4.77615 1.61945 1.18737
4.4151 1.52522 1.14109
4.39092 1.33914 1.01967
4.4271 1.44809 1.11538
4.35775 1.5016 1.10258
4.21396 1.46568 1.09878
4.26916 1.4444 1.07067
4.35382 1.53978 1.21843
4.45163 1.51108 1.13303
4.29534 1.49764 1.19149
3.94546 1.4808 1.14829
4.32626 1.53469 1.19835
3.71665 1.33613 1.07853
4.21657 1.50362 1.19659
4.53334 1.49209 1.1659
4.22734 1.56987 1.21547
3.92914 1.55223 1.28971
4.8412 1.64747 1.28146
4.05244 1.4922 1.21799
3.99568 1.4886 1.1952
4.08151 1.48268 1.1959
3.93468 1.51087 1.23579
3.9013 1.58767 1.28219
4.00749 1.38285 1.08925
3.93222 1.46395 1.24699
3.82885 1.65149 1.36495
3.85037 1.40747 1.17686
3.75919 1.46312 1.21726
3.9559 1.49476 1.27454
3.92457 1.51371 1.26902
3.9933 1.43772 1.23748
4.15442 1.57036 1.3439
3.9431 1.46947 1.22472
3.62152 1.38744 1.18373
3.86814 1.58191 1.31421
3.96252 1.53798 1.33688
3.52905 1.49413 1.31954
3.89507 1.50378 1.30686
3.63274 1.38929 1.23594
3.88563 1.50154 1.30425
3.83277 1.40736 1.24626
3.41643 1.42896 1.23059
3.71771 1.42389 1.34597
3.72638 1.48778 1.30198
3.73798 1.5185 1.34051
3.69788 1.48119 1.33842
3.53926 1.40037 1.26617
3.74101 1.5241 1.35276
3.57264 1.44506 1.33797
3.48896 1.43054 1.32434
3.71135 1.53226 1.41693
3.36358 1.56493 1.4364
3.53564 1.48631 1.38339
3.61492 1.56429 1.49498
3.92116 1.59818 1.45749
3.6399 1.46513 1.37502
3.61891 1.42759 1.35257
3.55085 1.47221 1.35735
3.39899 1.40227 1.32757
3.41333 1.44595 1.35374
3.46728 1.50644 1.47374
3.55782 1.56064 1.51117
3.32951 1.47991 1.40348
3.49049 1.55291 1.48378
3.49678 1.48161 1.42588
3.19811 1.46381 1.47487
3.36991 1.50689 1.4803
3.52138 1.55539 1.49373
3.45287 1.59372 1.58014
3.15687 1.37642 1.35584
3.25592 1.54858 1.61343
3.37998 1.52535 1.49866
3.45439 1.45855 1.47383
3.40868 1.66079 1.68605
3.22893 1.45851 1.44747
3.12914 1.55218 1.56685
3.24754 1.49845 1.57052
3.33449 1.55327 1.5097
3.2638 1.64475 1.68713
3.32608 1.61146 1.6464
3.11023 1.51516 1.57349
3.4751 1.62179 1.71811
3.35212 1.50876 1.54063
3.13927 1.55306 1.65876
3.13101 1.54611 1.58786
2.98411 1.42215 1.49411
3.29072 1.57026 1.63903
3.21258 1.4836 1.55311
3.04149 1.49256 1.61062
3.16824 1.61826 1.69576
2.95527 1.48182 1.59046
3.18531 1.51755 1.63005
3.09483 1.44294 1.57145
3.00641 1.54685 1.71811
3.13012 1.48687 1.62825
3.07216 1.58744 1.7042
3.30613 1.62879 1.72307
3.03587 1.57595 1.75291
3.07962 1.50627 1.75206
3.31302 1.63212 1.74085
3.04237 1.70594 1.87971
2.96492 1.49401 1.69441
3.10172 1.7322 1.9243
2.99273 1.53602 1.69484
3.004 1.65148 1.88898
2.89168 1.67621 1.88023
3.26807 1.53385 1.74772
2.9447 1.57669 1.74665
2.94819 1.56552 1.82174
3.0039 1.48895 1.70777
2.9698 1.56858 1.76009
2.8261 1.51178 1.76137
2.90749 1.47737 1.7479
2.76577 1.43891 1.69087
2.87485 1.50541 1.71861
2.87812 1.46995 1.72482
2.88222 1.64392 1.95197
2.77683 1.63005 1.92851
3.07235 1.66143 1.96593
2.81752 1.57568 1.91475
2.7986 1.6148 1.89998
2.82583 1.50805 1.75155
2.85515 1.55041 1.8972
2.87536 1.58732 1.83646
2.88446 1.64841 1.9842
2.65332 1.52039 1.78265
2.54259 1.62199 1.99748
2.79258 1.52019 1.81252
2.82685 1.59037 1.94398
2.70352 1.5084 1.93078
2.85022 1.58778 1.97152
2.96406 1.64551 1.94642
2.64177 1.65452 2.05668
2.54148 1.43271 1.7854
2.68725 1.54185 1.94937
2.82009 1.63953 2.07353
2.8199 1.64227 2.0385
2.54324 1.55129 1.89638
2.52788 1.56673 1.95299
2.73414 1.62601 2.0692
2.67383 1.67532 2.12974
2.73707 1.7432 2.26148
2.84808 1.6139 2.0246
2.64068 1.59066 2.06384
2.81958 1.67352 2.17609
2.76951 1.63795 2.08674
2.82475 1.68824 2.19009
2.67684 1.53734 1.97341
2.59407 1.65612 2.14658
2.61775 1.68639 2.23246
2.57832 1.66082 2.18679
2.73319 1.72254 2.28494
2.58438 1.72857 2.2417
2.60386 1.73256 2.26987
2.66514 1.76117 2.37278
2.73819 1.65895 2.13154
2.51189 1.63265 2.12101
2.39416 1.62266 2.1795
2.43765 1.65693 2.34345
2.77935 1.69398 2.18558
2.45597 1.6332 2.21637
2.46777 1.59774 2.23835
2.7076 1.71011 2.26875
2.54152 1.7298 2.39749
2.43823 1.60969 2.1743
2.66454 1.77813 2.4248
2.64227 1.84926 2.59078
2.46259 1.81313 2.39529
2.78524 1.77059 2.52385
2.99199 2.01671 2.84915
2.40632 1.72589 2.39583
2.58449 1.80202 2.47784
2.66448 1.85315 2.532
2.34144 1.49913 2.20875
2.53795 1.65341 2.29193
2.45036 1.78701 2.46811
2.39899 1.52378 2.2585
2.45924 1.71649 2.40038
2.30877 1.72197 2.49201
2.65089 1.85406 2.59782
2.42966 1.65258 2.31884
2.40049 1.5791 2.30258
2.50872 1.63303 2.37814
2.37332 1.59163 2.26358
2.38442 1.63243 2.46672
2.46882 1.7114 2.37853
2.35241 1.67721 2.41005
2.43666 1.64752 2.44523
2.54178 1.70342 2.50933
2.35482 1.62017 2.36143
2.2496 1.58987 2.35637
2.29919 1.6931 2.51065
2.39117 1.61393 2.30478
2.33706 1.68361 2.55095
2.2899 1.74549 2.51923
2.32236 1.66055 2.60993
2.42215 1.65205 2.36697
2.2556 1.58347 2.39785
2.22237 1.61193 2.56223
2.44319 1.77819 2.63634
2.23324 1.49665 2.35821
2.27427 1.70315 2.50355
2.32785 1.72245 2.6061
2.19476 1.62116 2.49206
2.21703 1.70525 2.72546
2.3149 1.58693 2.43841
2.29993 1.70763 2.52419
2.24794 1.633 2.50472
2.074 1.50253 2.34284
2.30039 1.75253 2.60828
2.19742 1.54341 2.58285
2.36758 1.85512 2.87632
2.38221 1.64696 2.50474
2.2745 1.73675 2.59846
2.18369 1.58577 2.52926
1.95179 1.39401 2.3208
2.0236 1.7668 2.79073
2.15053 1.57195 2.57101
2.1396 1.66184 2.65877
2.331 1.81838 2.93098
2.33007 1.74734 2.79131
2.07489 1.72915 2.66317
2.06228 1.66547 2.67176
2.21637 1.75774 2.7932
2.11633 1.70878 2.80883
2.34584 1.97305 3.18977
2.14075 1.64853 2.73379
1.96425 1.63413 2.61777
1.926 1.56568 2.65334
2.10947 1.70054 2.78822
2.09653 1.72282 2.84906
2.23749 1.62669 2.63578
2.10268 1.61548 2.65488
2.06207 1.74816 2.78726
2.03481 1.62041 2.73367
2.16699 1.56087 2.65784
2.29114 1.74005 2.86065
1.95303 1.60832 2.62709
2.13389 1.70292 2.88892
2.14564 1.73385 2.84468
1.97106 1.75302 3.07009
1.99848 1.5562 2.66541
2.00057 1.64602 2.86144
1.94322 1.49101 2.57368
1.97231 1.65552 2.78449
2.07513 1.66654 2.74009
1.99679 1.73303 2.97436
1.91083 1.53849 2.59772
1.90831 1.60142 2.86076
1.99379 1.74814 3.04421
1.98569 1.68874 2.87775
1.96536 1.69681 3.03183
2.07001 1.63398 2.71888
1.9312 1.55924 2.6687
1.81203 1.53915 2.7032
1.93442 1.66651 3.0247
1.87376 1.57974 2.89466
2.12586 1.80367 3.22468
2.01264 1.52881 2.65438
1.91336 1.77292 3.10954
1.86213 1.72895 3.03862
1.92135 1.58553 2.80674
1.87577 1.71371 3.15745
2.0385 1.70307 3.00327
1.96019 1.89455 3.44328
1.92168 1.73068 3.19849
1.95209 1.65986 3.04823
2.14612 1.80434 3.23024
1.94659 1.78619 3.18627
1.91592 1.68734 3.10085
1.93708 1.76754 3.28917
1.98494 1.70224 3.09848
2.05003 1.6939 2.89795
1.96893 1.63105 2.99901
2.02381 1.74047 3.19944
1.9513 1.78225 3.31404
1.83131 1.62857 2.89122
1.8678 1.71659 3.17807
1.8044 1.6597 3.17738
1.99773 1.82582 3.36382
2.15579 1.88281 3.36957
1.90074 1.76307 3.37091
1.87753 1.84366 3.51175
1.9479 1.71728 3.20484
1.79032 1.62882 3.16281
1.79234 1.73558 3.37615
1.73538 1.74821 3.34057
1.94582 1.73583 3.35175
1.9525 1.74682 3.18581
2.06541 1.91993 3.52551
1.83792 1.80339 3.41446
1.7652 1.65578 3.31973
1.96487 1.66117 3.10722
2.01385 1.90366 3.55539
1.74294 1.7457 3.27594
1.87839 1.72597 3.39432
1.7774 1.73355 3.32635
1.78058 1.61956 3.28652
1.92673 1.76749 3.37113
1.80384 1.7616 3.47978
1.85278 1.88854 3.59338
1.69368 1.69259 3.351
1.99388 1.93938 3.57734
1.89337 2.48651 5.69284
2.32813 2.19338 3.8415
1.94503 1.90636 3.79469
1.76657 1.71471 3.42587
1.86836 1.85569 3.35402
1.87019 1.86893 3.76027
1.91212 1.95534 3.83797
1.74836 1.73762 3.51983
1.90844 1.85583 3.63739
1.77003 1.64779 3.36891
1.80026 1.70767 3.59617
1.67227 1.66509 3.35457
1.74763 1.85903 3.75546
1.95529 1.83386 3.43826
1.714 1.77902 3.69199
1.64582 1.67981 3.5492
1.85521 1.74036 3.50151
1.74754 1.84927 3.84708
1.90843 1.72433 3.39637
1.56849 1.67945 3.49219
1.7431 1.79615 3.62695
1.70418 1.77465 3.6985
1.84205 1.80146 3.68992
1.69924 1.81612 3.84091
1.77607 1.79008 3.49805
1.75071 1.7833 3.88741
1.63943 1.79593 3.72771
1.75441 1.75113 3.57168
1.73816 1.88316 3.95218
1.85274 1.93104 4.10901
1.77171 1.82269 3.54921
1.73192 1.69141 3.6201
1.74299 1.84877 3.71521
1.71332 1.67901 3.73156
1.68878 1.69586 3.48889
1.68096 1.72049 3.66174
1.71222 2.02627 4.30386
1.60602 1.70605 3.69457
1.7558 1.927 3.93088
1.71102 1.68714 3.67682
1.58922 1.75642 3.66569
1.61102 1.71369 3.81803
1.69653 1.71407 3.71244
1.68917 1.69653 3.69508
1.58867 1.71638 3.78518
1.62151 1.82468 3.99598
1.78697 1.97677 4.13234
1.72758 1.80994 3.87178
1.67702 1.74357 3.75243
1.67756 1.92174 4.24727
1.58039 1.68276 3.83031
1.81906 1.69918 3.58529
1.70054 1.91512 4.27501
1.77661 1.8914 4.06352
1.60266 1.81264 3.9777
1.7769 1.84857 4.04471
1.64254 1.83218 3.79431
1.54816 1.8527 4.24295
1.67536 1.6666 3.8357
1.67683 2.02728 4.44544
1.69268 1.73471 3.77612
1.60786 1.8361 3.95514
1.58866 1.78407 4.04217
1.59169 1.76415 4.0802
1.72889 1.94253 4.1219
1.59618 1.893 4.19498
1.48736 1.57034 3.55822
1.55407 1.65843 3.77074
1.5271 1.5676 3.39314
1.49826 1.70414 4.09547
1.63391 1.78718 4.05096
1.66816 1.81791 4.17129
1.58841 1.77415 4.0765
1.5913 1.97301 4.38914
1.53982 1.73228 4.01022
1.52132 1.86701 4.30897
1.62351 1.79101 4.18808
1.53163 1.80005 4.04649
1.61176 1.9059 4.17009
1.48759 1.60831 3.95116
1.6084 2.02791 4.74731
1.70048 1.85393 4.33373
1.55103 1.77928 4.06876
1.52752 1.63057 4.10126
1.5711 1.78886 4.03075
1.50143 1.85149 4.42101
1.67194 1.9112 4.28924
1.54659 1.85236 4.17536
1.66472 1.91997 4.31405
1.55962 1.75322 4.10088
1.51067 1.90583 4.5534
1.61323 1.88896 4.44074
1.49415 1.91209 4.54576
1.5932 2.02064 4.71081
1.65084 1.9416 4.49182
1.54178 1.771 4.2651
1.54402 1.88986 4.439
1.50924 1.87007 4.33496
1.53901 1.8981 4.63719
1.48972 1.81919 4.42432
1.41398 1.87955 4.45199
1.46536 1.88532 4.54453
1.50079 1.8424 4.69573
1.59365 1.87216 4.43954
1.4895 1.73896 4.1159
1.49114 1.75028 4.18523
1.47045 1.83313 4.49568
1.54343 1.80652 4.34888
1.35953 1.80368 4.43731
1.44521 1.85209 4.55341
1.50105 1.80084 4.30357
1.45317 1.87671 4.53504
1.52709 1.77843 4.33913
1.41244 1.75603 4.28797
1.43338 1.91754 4.65379
1.61265 1.84343 4.52191
1.49667 1.97165 5.04691
1.51914 1.85781 4.41832
1.44001 1.87144 4.58432
1.43726 1.90046 4.62713
1.354 1.88119 4.76018
1.40536 1.79546 4.61376
1.47146 1.72274 4.29902
1.49067 1.90499 4.6938
1.46568 1.84422 4.53535
1.4784 1.87059 4.5967
1.40311 1.77409 4.76467
1.43199 1.8714 4.76709
1.53863 2.07824 5.27921
1.53482 2.06943 4.92665
1.44513 1.82727 4.64265
1.44472 1.9059 4.58739
1.45223 1.73594 4.55784
1.36005 1.73064 4.49994
1.50031 2.09437 5.21477
1.47485 1.88528 4.78021
1.51082 2.11609 5.45942
1.42383 1.73582 4.63811
1.47239 1.95688 4.93961
1.58199 2.05339 5.29004
1.44065 1.93224 5.05953
1.55399 2.10918 5.27516
1.44883 2.13428 5.44652
1.49413 1.98391 5.3528
1.53546 1.98851 5.36725
1.44165 1.98609 5.24582
1.64269 2.19092 5.42995
1.42731 1.90339 5.16494
1.61 2.11965 5.40152
1.49388 1.95424 5.2206
1.50371 2.35421 6.03857
1.5179 2.36731 6.60465
1.57488 2.46751 5.73536
1.56065 2.01331 5.63219
1.69449 2.47837 6.32419
1.53371 2.47299 6.27774
1.56692 2.10761 5.44333
1.5383 2.11864 5.51954
1.52018 2.08535 5.45263
1.47752 2.20636 5.66293
1.32123 1.84558 5.39491
1.48533 1.95776 5.39133
1.45473 2.01697 5.25551
1.36584 1.8844 5.1018
1.42766 2.05891 5.5044
1.5338 2.16593 5.29883
1.30473 1.97033 5.5327
1.42831 1.99221 5.37054
1.38675 1.83181 4.98712
1.35014 1.73665 4.59409
1.41602 1.91516 4.98156
1.36995 1.87413 5.19788
1.37291 1.89431 5.07669
1.35883 1.94142 5.41493
1.37982 1.87386 4.77512
1.34255 1.95802 5.45296
1.39433 1.97631 5.3548
1.27249 1.93905 5.26423
1.40407 1.77089 4.84284
1.31396 1.84256 5.12801
1.41279 2.27541 5.75681
1.38692 2.02368 5.49838
1.34732 1.90406 5.38035
1.35023 1.98548 5.37155
1.52425 1.91884 5.04586
1.23234 1.88349 5.57089
1.30357 1.85932 5.05629
1.35865 1.97742 5.21939
1.32806 1.93407 5.62436
1.36956 2.04677 5.36785
1.35773 1.932 5.54108
1.41718 1.9575 5.69125
1.46073 2.09381 5.87195
1.30806 1.9364 5.17424
1.34916 2.08431 5.5729
1.30572 1.88201 5.47952
1.29318 1.87545 4.89456
1.25453 1.83197 5.16382
1.31577 1.82475 5.07272
1.3011 1.93692 5.52721
1.37373 2.01453 5.40337
1.38293 1.85582 5.29652
1.33932 1.94416 5.4895
1.38743 1.88523 5.20766
1.29445 1.89192 5.38469
1.35267 1.9762 5.07615
1.17039 1.73368 5.29981
1.34572 1.90157 5.53882
1.33734 1.93462 5.21497
1.26888 1.98079 5.97115
1.35131 1.96202 5.82948
1.37282 2.07197 5.7401
1.33795 1.96011 5.5427
1.28306 2.02762 5.9064
1.38493 2.01218 6.11845
1.45599 2.15643 5.80386
1.3147 1.94465 5.53663
1.29107 1.9583 5.78109
1.41549 2.09298 5.98019
1.38255 2.0702 5.92364
1.33484 1.93053 5.63632
1.24135 1.99747 5.6329
1.30375 1.89612 5.36572
1.27912 1.8414 5.72994
1.23988 1.95498 5.44039
1.25628 2.09653 6.33413
1.28073 1.98049 5.95754
1.2799 2.00825 5.54697
1.2988 2.15345 6.55668
1.40033 2.15856 5.94534
1.18379 1.79581 5.34537
1.25442 1.78234 5.6451
1.3248 2.01026 5.53428
1.26742 2.05133 6.19477
1.30663 2.00289 5.78644
1.20692 1.93394 5.52203
1.19329 1.85585 6.11766
1.35594 2.25841 6.14161
1.32905 2.05147 5.95911
1.25437 2.05336 6.22276
1.25804 2.09007 6.52126
1.28665 1.98866 5.47455
1.26097 1.83699 5.76565
1.28638 1.89601 5.59632
1.24729 1.73496 5.0679
1.24421 2.261 6.66182
1.29868 2.12439 6.30513
1.23302 1.97977 6.00328
1.24313 2.029 6.17248
1.25204 1.99345 5.94072
1.23353 2.04342 6.09698
1.28897 1.91682 5.74992
1.14704 1.84167 5.77084
1.24033 1.99739 6.31355
1.25823 2.07303 5.99795
1.23477 1.94539 6.02291
1.23123 2.00672 5.95374
1.23944 1.82621 5.64512
1.27554 2.04748 6.19397
1.2705 1.97118 5.94856
1.23851 2.29637 6.59804
1.2541 2.03517 6.49244
1.35846 2.00925 6.12759
1.19697 1.87922 5.99958
1.23529 2.00744 5.84945
1.28858 2.10013 6.20452
1.1663 1.92998 5.9335
1.23728 2.22265 6.94093
1.29122 2.10307 6.42995
1.20325 2.15562 6.22019
1.1261 1.80104 5.87569
1.35956 2.01829 6.29951
1.11727 1.89313 6.31804
1.25469 2.1551 6.10301
1.2112 2.01558 6.75797
1.26133 2.04024 5.5997
1.24929 1.8192 5.9004
1.13426 2.07634 6.33653
1.27688 1.90998 5.77902
1.17371 1.85029 5.75625
1.07978 1.75752 5.81798
1.13947 2.10431 6.62416
1.27678 2.1616 6.56588
1.19167 2.04423 6.66581
1.2605 1.9816 6.30606
1.20758 2.10791 6.68825
1.27453 2.03704 6.02567
1.17081 1.82827 5.7573
1.14399 1.8242 5.74753
1.11749 1.79797 6.07423
1.2163 2.2969 6.77097
1.16769 1.98829 6.13496
1.19314 1.9167 6.07251
1.17588 2.13787 6.95046
1.17829 1.98784 6.41837
1.24267 1.77502 5.74916
1.1578 2.01845 6.07285
1.17653 1.83386 5.78211
1.20039 2.07198 6.85989
1.14601 2.04949 6.62833
1.25699 2.04294 6.66678
1.2021 2.11846 6.30986
1.20313 2.01201 6.1503
1.19524 1.92677 6.34051
1.30016 2.00347 6.39165
1.20073 1.85791 5.91658
1.10913 2.10721 6.65226
1.21466 2.00101 6.42167
1.1868 2.00258 6.67887
1.20423 2.06917 6.81111
1.17513 2.01884 6.79281
1.15712 1.88163 5.81868
1.13629 2.02168 6.19604
1.16646 1.77746 6.02595
1.22256 1.95273 6.1102
1.07402 1.96507 6.53775
1.15182 2.11291 6.7515
1.12895 2.01382 6.73064
1.24892 2.05777 6.65916
1.19016 2.21342 6.65507
1.11611 2.0395 6.4335
1.13312 1.88055 7.03775
1.30446 2.34044 7.03727
1.18872 1.81164 6.28527
1.2369 2.16707 7.01278
1.19419 1.92465 6.33719
1.05332 1.81246 5.84829
1.06122 1.93985 6.09169
1.10365 1.75452 6.0776
1.14927 2.12986 7.35265
1.3367 2.38163 6.98954
1.18347 1.89879 6.7978
1.17447 2.19464 6.90748
1.15312 2.14806 6.95776
1.15209 1.97286 6.68127
1.20912 2.13382 6.96593
1.13926 2.2282 7.53974
1.1925 2.09805 6.88646
1.16253 2.17499 7.37759
1.18359 2.1228 7.20147
1.13958 2.05798 6.75671
1.19341 2.1921 6.98482
1.18003 2.25511 7.89719
1.20526 2.20392 7.25684
1.1408 2.1056 6.68726
1.15705 1.94722 6.23916
1.05184 1.67138 6.0213
1.13667 2.0062 6.54678
1.08893 1.87144 6.93161
1.20031 2.13256 6.66235
1.13202 1.9973 6.66552
1.1618 2.16351 7.04254
1.04473 1.8479 6.4984
1.17221 2.12577 6.9341
1.17015 1.98908 7.09179
1.19685 2.2302 7.18497
1.1012 1.81557 6.31725
1.11914 2.08624 7.31007
1.22285 2.20216 7.46084
1.18155 2.13211 7.30535
1.11523 2.08761 6.93531
1.14911 2.13958 6.97333
1.20898 2.04407 7.01952
1.10129 2.10849 6.69751
1.09838 1.93394 6.90368
1.1868 1.92445 6.43587
1.04368 1.80128 6.56183
1.22151 2.37449 7.4884
1.14907 2.26481 7.88199
1.17546 2.0214 6.62285
1.07472 1.90881 6.99102
1.14874 2.13731 7.02887
1.10947 1.95295 7.13627
1.09563 2.00405 7.01796
1.18503 2.09329 6.63489
1.03887 1.94629 6.61816
1.12314 1.95941 7.44844
1.17563 2.00205 6.59026
1.14446 2.07573 7.18309
1.15256 2.13343 7.08926
1.10622 1.967 7.21825
1.17116 2.27261 7.33278
1.16449 1.90041 6.57737
1.02502 2.04734 7.14179
1.16339 2.114 7.37012
1.16077 2.16469 7.03583
1.09275 2.06078 7.79987
1.2227 2.0266 6.55412
1.03466 1.93998 6.87524
1.07885 2.07919 6.96904
1.08691 2.10017 7.57284
1.13118 2.02212 7.22272
1.10117 2.12367 7.46775
1.11895 2.04012 6.93627
1.06177 2.05141 7.18834
1.11131 1.95251 7.27237
1.10035 2.04698 7.09331
1.1916 2.28887 7.366
1.13243 1.98672 6.91479
1.08817 1.96731 7.52335
1.12403 2.0223 7.56722
1.23075 2.19081 7.23362
1.15714 2.01042 7.04577
1.07344 2.26774 7.9971
1.17852 2.39583 7.56456
1.06163 2.00603 7.73198
1.15597 2.13129 6.86842
1.09674 2.04837 7.75855
1.11994 2.12497 7.47173
1.12619 2.06235 7.53421
1.12287 2.16297 7.96252
1.13677 2.35162 7.57289
1.10545 2.18182 8.029
1.08087 2.17488 7.48481
1.08834 2.35159 8.26499
1.1408 2.12521 8.09209
1.24333 2.19678 7.18764
1.12644 2.13359 7.52424
1.03633 2.0357 7.31002
1.0541 1.95254 8.03118
1.25166 2.35797 8.28962
1.1904 2.40519 8.31272
1.17931 2.32269 7.32649
1.05471 2.1789 8.10975
1.10035 2.24019 7.91839
1.15397 2.13425 7.27191
1.06658 2.16841 7.99349
1.1573 2.2259 8.19341
1.09573 2.37478 9.53957
1.1971 2.24427 8.01792
1.19052 2.49201 8.58173
1.12416 2.26686 8.70241
1.2021 2.44352 8.04899
1.08689 2.19459 8.24578
1.17968 2.22834 8.0646
1.18527 2.53672 8.47196
1.23756 2.46973 8.76045
1.2138 2.4769 9.55803
1.2607 2.61032 9.78168
1.19527 2.90515 10.215
1.16691 2.49107 8.38035
1.25413 2.51591 9.80138
1.32764 2.78096 10.0295
1.21816 2.67947 9.29118
1.21624 2.57656 9.27469
1.22881 2.43972 8.93331
1.17834 2.4529 8.53306
1.14463 2.3732 8.84271
1.13463 2.3945 8.4486
1.14605 2.26644 8.53129
1.20421 2.48626 8.77933
1.04731 2.08529 7.95805
1.08278 2.33028 7.9722
1.08915 2.0969 7.46461
1.07546 2.21735 8.63121
1.11459 2.04703 7.5646
1.04146 2.21894 8.59382
1.09349 2.13641 7.7645
1.01554 2.33851 8.42203
1.15512 2.05598 7.79605
1.0915 2.24884 8.57692
1.12709 2.31634 8.01176
1.09028 2.36653 8.38282
1.14352 2.05602 8.02223
1.08766 2.10158 7.56106
1.04354 1.97371 7.39006
1.09785 2.22878 7.74948
0.994761 2.08268 7.4803
1.05096 2.04287 7.45737
1.01986 2.30125 8.01132
1.0284 1.95525 7.78685
1.07191 2.1384 7.80188
1.13798 2.23582 8.09374
1.04005 2.11844 8.21481
1.06414 2.15672 7.169
1.01682 2.0999 7.71444
1.04217 2.22034 8.11739
1.08207 2.13785 8.46689
1.10655 2.23558 8.24872
1.0836 2.03589 7.93417
1.08127 2.29561 7.43773
0.994516 1.99554 8.26519
1.11531 2.32389 7.73014
0.9406 2.18836 8.47528
1.04885 2.15778 8.20091
1.17719 1.9836 7.28583
1.0161 2.1731 7.78629
1.07361 1.96254 7.10366
0.995176 2.09373 7.90749
1.02741 2.10946 8.03423
1.07749 1.89386 7.37513
1.06612 2.15492 8.1977
1.07854 2.20097 7.65514
0.994004 2.07884 7.75028
1.01248 2.03582 8.70773
1.08114 2.21571 7.79192
0.991239 2.10172 8.22738
1.06808 1.93754 6.72863
0.998307 2.02327 7.85652
1.05631 2.17023 7.87995
1.03867 2.12616 8.22499
1.02741 1.99584 7.73804
1.04086 2.28992 8.39951
1.03348 2.13353 7.70324
1.05559 2.23859 8.49206
1.07752 2.04691 8.82918
1.12817 2.17648 8.10423
1.0588 2.40908 8.95208
1.12882 2.00609 7.92323
1.0823 2.20477 7.76259
1.02974 2.26032 8.02242
1.05796 2.16732 8.39369
1.06792 2.05959 7.47326
0.999578 2.1632 9.14304
1.11609 2.25823 8.01152
1.03253 1.98324 7.12645
1.0062 2.03197 7.95827
1.04889 2.1126 7.883
0.997908 2.18864 8.11658
1.09161 2.21615 7.88181
1.0251 1.99963 8.16959
1.07672 1.97713 8.00098
1.03038 2.1472 7.74893
1.03995 2.01238 8.15615
1.02699 2.11115 7.92458
1.07876 2.00084 7.93878
1.0879 2.45759 8.63351
0.976937 2.07623 8.743
1.11074 2.29505 8.04778
1.05743 2.07566 8.726
1.10573 2.33604 8.21041
1.02302 1.92882 7.65307
1.02306 2.18872 7.55446
0.942754 2.00341 8.01649
1.03813 2.29967 8.83535
1.04979 2.21879 8.17872
1.07871 1.98874 7.87241
0.977088 2.12889 8.24317
1.02923 2.2511 8.18373
1.06111 2.13769 8.19613
1.11155 2.13517 8.08751
0.952232 2.1279 8.6898
1.09736 2.21052 7.95372
1.0057 2.05238 8.06515
1.08115 2.21349 8.22167
0.979955 2.1085 9.05145
1.11367 2.08293 8.11495
1.04491 2.1635 7.79537
1.01229 2.13867 7.75344
0.966094 2.06631 8.92622
1.1107 2.55218 9.09222
1.10739 1.88138 7.4965
1.02767 2.04633 7.87299
1.0181 2.28069 8.4235
0.97254 1.9187 7.65798
1.02531 2.2367 8.85345
1.09098 2.19874 8.3631
1.06456 1.92293 8.03055
1.10451 2.29454 8.31028
0.977371 2.0431 8.19377
1.02492 2.05925 8.01733
1.00886 2.0527 8.03764
0.988787 2.36294 8.31233
0.981807 1.94617 8.08156
1.01371 2.3087 8.36152
1.04054 1.95931 8.03484
1.02777 2.18875 7.84836
0.999771 2.1934 8.71496
1.03789 2.03424 8.74249
1.02914 2.36854 8.35358
1.07733 2.2112 8.4698
1.09238 2.1162 7.87051
1.02223 1.9562 8.19218
0.99848 2.20674 8.47999
1.0159 2.11795 7.98613
1.05704 2.12751 8.48778
1.00781 2.08048 8.24602
1.02422 2.09104 8.36341
1.05635 2.25484 8.79325
1.0395 2.3031 8.09257
1.00863 2.16336 8.87732
1.05164 2.27999 8.49243
0.997188 2.29465 8.03289
0.969135 2.14526 8.74345
0.979027 2.13591 8.99329
1.01964 2.41436 9.03241
1.05566 2.14374 8.97042
1.00171 2.20321 7.69694
0.941669 2.20167 8.79206
1.02836 1.88763 7.97929
0.984384 2.21231 8.59391
0.991318 1.98317 8.27828
1.07977 2.47994 8.4214
1.01406 2.05758 8.26268
1.00543 2.31203 8.51235
1.01746 2.02105 8.14279
0.988143 1.99871 7.71654
0.96335 2.02981 9.07604
1.03034 2.22104 8.28371
1.0158 2.31507 8.99336
1.12083 2.12936 7.41218
0.921573 1.99402 8.65558
1.00913 2.27234 8.05758
0.952314 1.88245 7.89452
0.953824 2.23778 8.65608
0.986867 2.1168 9.2387
1.07097 2.21128 9.29803
1.00344 2.30939 8.62584
1.01409 2.08853 7.42044
0.936647 2.13282 8.12712
0.988945 2.07741 8.26786
0.947695 2.0999 9.23625
1.04005 2.17961 8.63005
1.05143 2.21045 8.89296
0.999694 2.21583 8.74538
1.04625 2.10299 8.65267
1.02673 2.33395 8.71945
1.03429 2.12525 8.51788
1.05566 2.35504 8.6823
1.03102 2.30864 9.50648
1.09457 2.33728 9.05463
1.06083 2.0839 8.02333
0.95737 1.9433 8.05873
0.97539 2.0466 7.85812
0.99851 2.03714 8.46254
0.998816 2.03741 8.32979
0.929651 2.24026 8.25504
1.03501 2.28286 8.5281
0.958434 2.27501 9.44554
1.09127 2.30724 9.14097
1.03684 2.34436 8.99203
0.973806 2.19491 8.67678
1.04263 2.12278 9.38066
1.05818 2.34057 8.98747
1.07314 2.18059 8.21519
1.0301 2.26174 9.07727
0.994331 2.19074 8.44817
0.99348 2.06904 7.81358
1.0052 2.16201 9.01259
1.02809 2.29856 8.3993
1.0032 2.00072 8.30839
1.00326 2.27409 9.13264
1.0176 2.20866 8.66563
0.954892 2.20445 8.6342
1.02081 2.11613 9.07834
0.987159 2.26709 9.01273
1.0674 2.05461 7.53821
0.969361 2.23706 9.33364
1.02532 2.20511 8.73165
0.946099 2.23073 8.37906
0.933761 2.24432 8.29502
0.929927 2.10444 9.07156
1.07097 2.28196 8.97578
0.961442 2.1923 8.37302
0.960293 2.25213 9.2717
1.03209 2.09152 8.70707
1.01472 2.12509 8.23608
0.948404 2.28087 8.21611
0.957977 2.11779 9.2388
1.01468 2.43482 8.04079
0.967518 2.07951 9.06109
1.05004 2.25032 9.44339
1.02294 2.21914 8.6718
1.01869 2.08632 8.28522
0.940252 2.05223 8.72616
1.02825 2.27962 8.35276
0.967634 2.11653 9.41009
1.07487 2.24895 7.98498
0.950484 1.92515 7.75591
0.99476 1.93955 9.16968
0.979024 2.18696 7.31865
0.910017 2.0971 9.02845
0.97514 2.28996 9.30644
1.05013 2.19801 8.80611
1.02846 2.1661 8.51329
0.962798 2.25546 9.19384
0.923347 2.16851 7.94699
0.96989 2.20332 8.89655
1.08968 2.3247 9.03192
1.00281 2.17024 9.38642
1.10847 2.35099 9.09842
1.00615 2.25976 8.70583
0.987447 2.14254 8.41049
0.95122 2.26752 8.90846
0.973221 2.30138 9.62584
1.14277 2.26146 8.80325
0.997953 2.21146 8.03438
0.980727 2.07241 9.2497
1.07381 2.38724 8.91371
1.04042 2.14801 8.71198
1.02995 1.92569 8.19931
0.955058 2.17568 8.14798
0.92557 2.10588 9.38037
1.04899 2.2985 9.07819
1.04251 2.11443 8.27129
0.879986 2.15128 8.82806
1.00086 2.1784 8.95028
0.993863 2.36232 8.22272
1.00504 2.1515 8.99048
1.00214 2.19292 8.66872
1.00072 2.34895 8.9804
1.03026 2.05774 8.85052
0.932297 2.16508 8.23005
0.934624 2.2769 8.28676
0.943377 2.11379 8.79901
0.964137 2.0799 9.16481
1.01398 2.11764 8.22721
0.970878 2.29426 9.65114
1.10294 2.37101 8.82884
1.03993 2.33109 9.41579
1.02461 2.35424 9.33474
1.05918 2.41006 9.62083
1.07825 2.17038 9.11779
1.03659 2.28709 9.2901
1.00623 2.44375 10.1356
1.12335 2.29611 8.6387
1.01878 2.13108 8.33756
1.08401 2.17273 9.45124
1.14455 2.36592 9.45061
1.05505 2.44314 9.83377
1.01317 2.68643 10.6178
1.13129 2.60581 9.72248
1.09804 2.22609 9.16869
1.00739 2.47224 9.79444
1.04637 2.51095 11.0449
1.17444 2.70181 10.6142
1.1397 2.80043 10.8236
1.08579 2.84773 12.2027
1.17783 2.64505 8.59107
1.08849 0 0