# pn-170911/RbIIA-26-USN3-1280-1959.psd
# Power spectrum* (dif=0,1,2) (really just |FT|^2)
# NOTE: only the first half! (symmetric)
# weeks: 1280-1959
# 2709 clock-days, 868 excluded
# PSD: 1441
4508.14 0.137792 0.00668376
142168 2.09253 0.00346938
669657 14.5745 0.00357141
109315 3.83384 0.00352648
108468 7.63844 0.00415516
38314.4 3.69286 0.00392412
30812.4 4.37537 0.00407608
19545 3.61283 0.00415253
16175.3 3.86762 0.00461035
12221 3.76007 0.00499834
9512.47 3.61223 0.00514104
8278.86 3.78813 0.00544752
6908.78 3.81669 0.0060704
5849.96 3.77723 0.00655723
5017.16 3.67375 0.00681529
4335.55 3.66448 0.00732934
3851.53 3.79979 0.00786527
3270.79 3.61838 0.00811996
3125.12 3.86475 0.0095341
2711.55 3.69657 0.00971318
2429.33 3.72664 0.0109342
2218.71 3.72122 0.0114437
1971.44 3.59842 0.0116081
1857.85 3.69156 0.0127277
1671.15 3.61028 0.0133163
1565.56 3.73924 0.0148465
1430.54 3.71484 0.0151417
1308.16 3.64507 0.0161533
1203.81 3.60998 0.0168754
1139.27 3.54872 0.0177116
1089.42 3.75728 0.019362
1020.24 3.76454 0.0205422
922.201 3.59591 0.0207477
915.383 3.7939 0.0232648
874.236 3.80113 0.0242565
771.944 3.5809 0.0247393
728.879 3.62175 0.025461
735.047 3.73518 0.0280139
680.398 3.70095 0.0291124
622.098 3.56388 0.0291507
625.476 3.71758 0.0313281
559.791 3.56125 0.0316815
548.763 3.66239 0.0345277
534.756 3.71504 0.0360907
509.3 3.76166 0.0376758
469.358 3.64873 0.0389623
482.752 3.83371 0.0419305
435.641 3.6362 0.0414352
420.408 3.64024 0.0428086
402.134 3.49387 0.0433302
393.114 3.63831 0.0467541
371.609 3.59657 0.0484099
359.679 3.64848 0.0499804
350.779 3.73329 0.0533376
333.345 3.64705 0.0544827
316.511 3.66042 0.0565261
303.87 3.58954 0.0566783
299.067 3.70081 0.0608387
275.318 3.53918 0.0600621
285.846 3.74619 0.0653795
272.618 3.68132 0.0667875
266.589 3.71847 0.0696269
252.832 3.69323 0.0709327
243.612 3.65716 0.0725925
240.103 3.6966 0.0750645
229.331 3.63794 0.0767562
222.317 3.65165 0.0794958
211.39 3.65068 0.0814082
207.049 3.60654 0.0824389
191.113 3.47188 0.0817721
194.09 3.52314 0.0854039
188.986 3.59507 0.0898645
190.799 3.72431 0.096125
177.162 3.56774 0.0926894
172.343 3.59599 0.0963114
175.14 3.62437 0.0999884
167.692 3.6367 0.102647
166.3 3.70773 0.107233
167.439 3.73352 0.111085
158.15 3.69783 0.114328
156.285 3.76146 0.117701
143.462 3.56747 0.115047
143.205 3.67437 0.120928
149.954 3.82561 0.12739
140.037 3.75832 0.1304
132.98 3.53766 0.123993
129.395 3.61646 0.130806
131.16 3.83168 0.141408
125.184 3.6456 0.136998
120.974 3.60726 0.139881
118.055 3.65448 0.141595
119.006 3.6734 0.148483
115.694 3.58361 0.148293
114.99 3.68778 0.156395
109.917 3.70041 0.15749
107.742 3.76124 0.164881
104.175 3.61252 0.162755
100.66 3.65228 0.166221
103.621 3.80464 0.176988
100.381 3.5982 0.17076
102.769 3.89166 0.188015
97.1817 3.72923 0.183224
94.4523 3.6908 0.185277
94.6609 3.74488 0.19209
94.3234 3.78172 0.19742
87.9232 3.63793 0.192158
82.6724 3.57206 0.194704
84.9886 3.72301 0.205595
85.4086 3.77686 0.212839
83.2316 3.69722 0.21126
78.8001 3.62848 0.211004
78.9643 3.60336 0.214375
77.9769 3.69597 0.223842
77.1269 3.68326 0.228102
74.8027 3.72723 0.233404
72.7159 3.59603 0.22976
71.7855 3.665 0.237386
72.0519 3.75908 0.24633
69.3122 3.68388 0.245724
67.4454 3.68007 0.249954
68.3734 3.7336 0.258095
67.6873 3.70436 0.262043
65.7831 3.66571 0.261676
66.3482 3.74321 0.270948
61.8473 3.55115 0.262215
64.4056 3.7296 0.280024
59.6077 3.50034 0.266364
61.7458 3.77773 0.290424
58.2576 3.55214 0.28156
59.8443 3.60573 0.286135
56.51 3.65213 0.295923
57.4863 3.58474 0.29524
55.913 3.66853 0.308084
56.2937 3.69056 0.311075
54.4489 3.82305 0.326846
55.714 3.81174 0.330644
52.9676 3.69449 0.327832
51.0036 3.58117 0.323553
51.5833 3.63938 0.330641
49.574 3.65455 0.336259
49.5545 3.66046 0.343723
49.2126 3.69678 0.349337
48.2692 3.63335 0.347241
47.5724 3.6167 0.35299
45.7996 3.50856 0.346921
47.3442 3.6609 0.368655
46.6686 3.73858 0.379212
43.8234 3.56653 0.367088
45.6363 3.68693 0.384258
43.7601 3.62255 0.383499
43.4708 3.69677 0.396877
42.1255 3.64378 0.393929
43.1799 3.63237 0.401541
43.7375 3.82648 0.423654
40.6933 3.55326 0.398638
42.9403 3.87464 0.442578
41.1417 3.78978 0.440587
40.5748 3.7527 0.435936
39.4045 3.69824 0.437283
39.5447 3.73852 0.452109
38.506 3.69877 0.448734
37.939 3.65086 0.448719
36.5935 3.60979 0.450363
37.588 3.70298 0.464414
36.2046 3.70044 0.47595
36.6367 3.68248 0.476338
36.4717 3.66101 0.479214
35.7156 3.71002 0.488164
35.4303 3.76736 0.503331
33.8947 3.61762 0.489214
34.6219 3.66153 0.502466
34.9662 3.78149 0.522843
33.3967 3.67046 0.512455
31.8843 3.54116 0.502554
33.2915 3.76921 0.53757
32.2437 3.67985 0.535091
31.8832 3.71504 0.546573
31.5154 3.78285 0.562758
31.5476 3.73449 0.558952
32.0756 3.85367 0.584521
30.9966 3.86122 0.590272
31.2269 3.68877 0.570234
29.9974 3.77363 0.594653
29.5691 3.68097 0.581891
29.497 3.79958 0.611027
29.3933 3.73925 0.601434
28.2949 3.73211 0.610977
27.9242 3.67477 0.604375
27.883 3.66061 0.610798
27.7767 3.78288 0.635352
28.1828 3.7622 0.642804
27.4245 3.68597 0.629197
26.4393 3.61236 0.62431
26.0029 3.55904 0.624859
26.6833 3.77392 0.672574
26.5608 3.72839 0.666601
26.3557 3.81639 0.69044
25.7596 3.68096 0.671815
26.6674 3.88135 0.715171
25.8368 3.85127 0.725121
24.936 3.73752 0.708066
24.5932 3.63431 0.687407
24.1252 3.6767 0.706629
23.762 3.67771 0.715701
23.5462 3.72416 0.732769
23.287 3.69623 0.724119
23.945 3.74881 0.750344
23.4575 3.69866 0.744656
22.3483 3.62569 0.738719
23.3411 3.84907 0.786847
22.0598 3.68363 0.767319
22.718 3.68 0.770179
23.2873 3.81597 0.806583
22.2217 3.78015 0.802928
21.2993 3.63215 0.780079
20.7109 3.61145 0.787365
20.7145 3.59173 0.791378
21.289 3.73556 0.822231
20.7857 3.72496 0.833007
21.0219 3.72844 0.840278
20.4011 3.66704 0.834673
20.508 3.65722 0.839494
20.0163 3.64198 0.845972
20.6168 3.76665 0.869209
19.7169 3.74018 0.888528
20.586 3.79383 0.89671
19.9184 3.69681 0.876049
19.7944 3.8115 0.925613
19.3727 3.7666 0.912684
18.8969 3.66459 0.895494
19.1488 3.82073 0.946752
18.7699 3.76794 0.942032
18.4227 3.66197 0.918654
18.5972 3.73531 0.945208
18.4306 3.72809 0.959887
18.0611 3.76633 0.977244
18.1187 3.74895 0.963046
17.6587 3.70426 0.97646
17.7352 3.70219 0.985143
17.5926 3.72625 0.99335
18.1226 3.86229 1.03334
17.4737 3.78828 1.0309
17.4461 3.7908 1.03879
17.1875 3.81344 1.05502
17.1956 3.74755 1.03875
16.8107 3.74811 1.04461
16.7874 3.81985 1.08952
16.4889 3.7059 1.05556
16.6509 3.8614 1.10686
16.3082 3.75504 1.07687
15.9487 3.65518 1.06672
15.9514 3.54727 1.03635
16.2484 3.86687 1.13903
16.198 3.85059 1.14315
16.179 3.86798 1.16002
15.1216 3.67854 1.1227
15.4073 3.71889 1.13265
15.2464 3.70685 1.13822
15.3746 3.75268 1.15313
15.4521 3.88583 1.21546
15.0593 3.73306 1.17494
14.803 3.7602 1.18155
14.977 3.76942 1.2015
14.5782 3.77064 1.21474
14.6562 3.77362 1.22475
14.2842 3.71416 1.2204
14.5142 3.75761 1.23184
14.5777 3.79168 1.24474
14.1311 3.72685 1.25213
13.8494 3.71839 1.24229
13.8891 3.69662 1.25349
13.9071 3.72366 1.26095
13.6608 3.79061 1.29554
13.9219 3.78834 1.30635
13.6438 3.7206 1.29989
13.7454 3.8171 1.33235
13.3736 3.83723 1.34983
13.1721 3.67739 1.31951
13.1096 3.75945 1.34121
13.3787 3.85223 1.37849
12.8321 3.74548 1.36382
12.7497 3.7064 1.35637
13.1771 3.81205 1.39409
13.1705 3.86744 1.43837
12.8483 3.84236 1.4251
13.2624 3.9237 1.46452
12.9361 3.93421 1.48607
13.0266 3.97596 1.50862
12.5613 3.84909 1.46405
12.7135 3.90931 1.49679
12.1197 3.80356 1.47748
12.2264 3.83664 1.49877
12.0976 3.77631 1.48195
12.1454 3.74322 1.47697
11.9782 3.76119 1.49683
11.7888 3.76431 1.51154
11.803 3.82029 1.52969
11.6962 3.81973 1.55359
11.6052 3.86566 1.57425
11.3619 3.78585 1.55597
11.3703 3.74711 1.55899
11.4126 3.75291 1.57351
11.5246 3.84236 1.60182
11.6818 3.92234 1.64764
11.2533 3.76931 1.60824
11.146 3.90291 1.67727
11.1875 3.76241 1.60447
11.1509 3.88652 1.68876
10.745 3.72757 1.62918
11.05 3.91717 1.71403
10.8028 3.82483 1.67597
10.4657 3.76918 1.69597
10.9935 3.90091 1.7363
10.7026 3.84281 1.72521
11.1596 3.99925 1.80467
10.6304 3.97628 1.81631
10.8126 3.98845 1.81468
10.341 3.76749 1.74687
9.75061 3.61249 1.68164
10.2687 3.76587 1.74408
10.4828 3.92346 1.84801
9.98648 3.72043 1.76274
10.2526 3.88138 1.83142
10.0568 3.80021 1.80505
9.9713 3.78939 1.81156
10.3827 3.92896 1.88744
9.81824 3.82839 1.85819
9.53971 3.74504 1.83588
9.79762 3.80223 1.86738
9.5998 3.88437 1.91695
9.48486 3.73577 1.88241
9.78134 3.85936 1.91982
9.22098 3.72092 1.88515
9.64379 3.80765 1.91783
9.37965 3.7427 1.8928
9.20125 3.79919 1.94776
9.70619 3.99058 2.06561
9.52862 3.83093 1.95644
9.30454 3.88215 2.0161
8.94182 3.78214 1.98356
9.17353 3.93671 2.09244
9.0747 3.80606 2.04509
8.93148 3.75854 1.98921
9.33006 3.93145 2.09541
8.80987 3.79942 2.05372
8.73132 3.79553 2.06422
9.00522 3.91095 2.11693
8.92465 3.91496 2.13146
8.95465 3.92278 2.14284
8.4348 3.73778 2.07771
8.72694 3.88168 2.15809
8.35022 3.86631 2.18567
8.70201 3.91892 2.19394
8.51325 3.764 2.12639
8.40516 3.88101 2.21998
8.38695 3.87492 2.2019
8.379 3.92008 2.25965
8.42972 3.86788 2.21944
8.25495 3.81773 2.21862
8.08615 3.8383 2.25041
8.21828 3.90244 2.29629
8.4151 3.94269 2.32178
8.53447 4.09302 2.43395
8.41195 3.89966 2.30426
8.52885 4.01424 2.37173
8.20713 3.9976 2.44212
8.11263 3.91941 2.33895
7.80551 3.83023 2.36267
7.65558 3.73774 2.29734
7.76368 3.76381 2.30676
8.11329 4.04355 2.49834
7.86493 3.9563 2.4653
7.73473 3.86192 2.42293
7.75438 3.91514 2.44732
7.71746 3.93201 2.50059
7.81187 3.96354 2.50824
7.6725 3.85086 2.44036
7.76325 3.99213 2.53717
7.53528 3.75789 2.42009
7.63845 3.98317 2.60437
7.42479 3.91849 2.55147
7.34583 3.87905 2.56448
7.5756 3.96092 2.56722
7.20116 3.80291 2.49368
7.31243 4.00367 2.66353
7.40908 3.81316 2.54639
7.2793 3.85477 2.57299
7.19082 3.95378 2.69785
7.26802 3.95701 2.66431
7.37953 3.99668 2.69276
7.48814 4.13019 2.82308
7.14499 4.02973 2.78201
7.24959 3.96951 2.71941
7.39771 4.06252 2.80613
7.06468 3.93525 2.74968
7.0745 3.89797 2.69098
6.95694 3.92619 2.7362
7.02183 3.94352 2.76517
6.8296 3.87684 2.73292
6.84231 3.94217 2.83066
6.86929 3.99053 2.84975
6.7031 3.92708 2.84522
6.73222 3.91216 2.80291
6.45007 3.83472 2.75767
6.84971 3.90742 2.84969
6.99359 4.14764 3.02088
6.54827 3.87777 2.85263
6.64661 3.91764 2.89883
6.57634 3.92302 2.91008
6.42394 3.88433 2.86673
6.62036 4.05637 3.0679
6.60473 3.89344 2.92841
6.40038 3.8594 2.91785
6.46857 3.89019 2.95287
6.61797 4.0357 3.09313
6.37757 3.94059 3.01506
6.35736 3.89116 2.99847
6.29256 3.84056 2.99344
6.41045 3.98997 3.09115
6.19173 3.90863 3.06525
6.24298 3.80051 2.98279
6.33909 4.0413 3.15033
6.4007 4.07936 3.20082
5.99085 3.85407 3.09709
6.09548 3.92456 3.1187
6.18211 3.91331 3.18506
6.07386 3.871 3.10703
6.01377 3.94608 3.21654
6.08673 3.94323 3.1891
5.77645 3.82151 3.09925
6.01115 4.02667 3.31368
6.12686 4.08137 3.34672
6.07132 3.91388 3.20842
6.05246 4.02561 3.34431
6.07891 4.03727 3.31975
5.67522 3.94021 3.31148
5.86168 3.90318 3.28432
5.74043 3.94851 3.36086
5.89722 3.96413 3.36953
5.92135 3.94622 3.34023
5.76621 3.99193 3.36795
5.82681 4.03074 3.43806
5.81236 4.02771 3.50306
5.90854 4.03308 3.48153
5.68689 4.01642 3.47367
5.63694 3.99755 3.47935
5.58175 3.90366 3.3883
5.64898 4.08724 3.58559
5.6366 4.03432 3.58723
5.55098 3.89654 3.50352
5.757 4.1669 3.68105
5.67244 4.18697 3.72273
5.73347 4.1567 3.69278
5.45961 3.921 3.54914
5.54679 4.02301 3.66102
5.51754 4.02776 3.63056
5.26382 3.87502 3.54954
5.62514 4.13285 3.75886
5.12819 3.83967 3.56788
5.46174 4.0863 3.80473
5.42685 4.07175 3.79134
5.41538 4.14068 3.8361
5.30486 3.97162 3.65639
5.21563 3.97471 3.78533
5.19796 4.00019 3.76718
5.3544 4.04389 3.80178
5.13997 3.95802 3.75215
5.2776 4.0554 3.77947
5.21003 4.0304 3.90872
5.17367 4.0179 3.83598
5.21025 4.11337 4.03004
5.24431 4.10945 3.94108
5.24093 3.99251 3.84832
5.06481 4.0043 3.90584
5.0403 4.06925 4.01996
5.16221 4.04402 3.92084
4.89076 3.93626 3.92291
5.08066 4.17326 4.09445
5.00467 4.03412 4.03178
5.08135 4.03842 3.95319
4.78417 3.95209 4.05788
5.00859 4.01865 3.96184
4.90094 4.04911 4.10683
4.81823 4.00992 4.07604
4.88729 3.9626 4.08941
4.95676 4.06698 4.14664
5.14757 4.20096 4.25551
4.95561 4.26824 4.3592
4.77995 3.95136 4.10285
4.86193 3.97753 4.05606
4.75345 4.17251 4.42603
4.96896 4.1736 4.31436
4.78594 4.09145 4.26996
4.87384 4.16157 4.3883
4.77378 4.05167 4.28361
4.85941 4.13593 4.34574
4.75949 4.04636 4.32978
4.67237 3.96802 4.27137
4.83349 4.17378 4.39162
4.67068 4.07129 4.44389
4.67832 4.0068 4.28823
4.54073 4.00036 4.31744
4.62263 3.94221 4.27866
4.48947 3.90903 4.2598
4.61245 4.03832 4.3987
4.50987 3.91997 4.29335
4.5239 4.06494 4.43446
4.54398 4.09362 4.52165
4.54868 4.14481 4.61965
4.50135 4.11637 4.57054
4.59184 4.19379 4.64378
4.55816 4.13423 4.66445
4.41495 4.00694 4.49502
4.6985 4.2862 4.81698
4.4398 4.0665 4.56561
4.36391 4.06873 4.64041
4.34785 4.10392 4.70029
4.47681 4.10534 4.62399
4.22261 3.96352 4.55489
4.30682 4.1004 4.79778
4.52836 4.2268 4.87197
4.2766 3.90466 4.54698
4.38454 4.19099 4.87118
4.43319 4.22222 4.9088
4.23483 4.04926 4.79315
4.11825 4.0179 4.73804
4.37916 4.23391 4.99516
4.23934 4.08339 4.90878
4.44966 4.16733 5.00581
4.30843 4.10134 4.8213
4.2892 4.13968 4.95788
4.30049 4.16424 4.93887
4.33302 4.20668 5.06414
4.09457 3.96747 4.81321
4.21912 4.13605 5.02774
4.30339 4.23335 5.07876
4.0753 3.96078 4.81204
4.0297 4.07069 4.92659
4.04148 4.06563 5.11676
4.14923 4.18123 5.19108
4.15014 4.08785 5.06436
4.02844 4.08056 5.06225
4.08076 4.07427 5.03998
4.01077 4.12344 5.10137
4.12579 4.23741 5.32952
4.0293 4.08402 5.12919
3.89899 3.9458 5.00273
3.93737 4.01621 5.17635
4.09631 4.17407 5.25431
4.18152 4.17419 5.19543
3.99587 4.18686 5.26644
3.88868 4.00965 5.23963
4.13498 4.27521 5.44269
3.97813 4.13287 5.31885
3.88882 4.15424 5.51381
3.9463 4.18363 5.36049
3.88648 4.11005 5.3749
3.88574 4.10369 5.33888
4.10375 4.34743 5.58277
3.95411 4.30167 5.72018
3.91885 4.17359 5.42055
3.88414 4.2171 5.68244
3.82238 4.0581 5.40569
3.94088 4.28663 5.72082
3.96303 4.25296 5.64871
3.86883 4.13075 5.53781
3.87495 4.12384 5.47904
3.86394 4.14308 5.61709
3.80444 4.16356 5.6179
3.7573 4.21419 5.75366
3.89699 4.41381 5.9221
3.86828 4.29299 5.84915
3.80327 4.36934 6.02953
4.01333 4.49543 6.15612
4.07613 4.56889 6.27662
3.94486 4.54768 6.2236
3.81245 4.25491 6.0826
4.13736 4.70845 6.42423
3.81494 4.39781 6.14277
3.8297 4.36028 6.09456
3.85297 4.39002 5.99923
3.60311 4.13265 5.93502
3.78407 4.36827 5.98493
3.84172 4.39716 6.21889
3.61375 4.14965 6.01427
3.82685 4.33453 6.0085
3.56766 4.17846 5.93588
3.69957 4.36212 6.13288
3.58201 4.19465 6.10088
3.60004 4.22608 6.06281
3.61748 4.12791 5.91974
3.57276 4.23441 6.08746
3.5856 4.36948 6.39678
3.60114 4.18699 6.11135
3.62316 4.29309 6.26444
3.58784 4.23317 6.20072
3.50123 4.17328 6.16474
3.44812 4.14944 6.10858
3.54796 4.32389 6.35024
3.36094 4.10195 6.15305
3.45979 4.06178 5.89863
3.45883 4.22635 6.41659
3.3807 4.19644 6.27929
3.50135 4.26322 6.32606
3.42405 4.2146 6.32059
3.48388 4.33609 6.56092
3.5258 4.3036 6.4128
3.46118 4.29708 6.53804
3.47952 4.23887 6.3297
3.39798 4.14392 6.35185
3.42292 4.2617 6.5215
3.32347 4.18774 6.43694
3.37544 4.16297 6.34717
3.43711 4.28558 6.54104
3.28539 4.20926 6.51843
3.35713 4.24822 6.52438
3.28818 4.13463 6.41873
3.25709 4.12806 6.5272
3.38262 4.30938 6.56507
3.43681 4.35101 6.70347
3.22153 4.20683 6.6377
3.34194 4.2974 6.80351
3.37518 4.35759 6.95627
3.30597 4.30821 6.7825
3.20002 4.15274 6.62585
3.26332 4.36519 6.94861
3.23854 4.19548 6.62303
3.34531 4.3461 7.0375
3.47027 4.51676 7.205
3.16364 4.19674 6.8385
3.33408 4.34521 6.99529
3.28947 4.31073 6.9581
3.25211 4.32484 7.06094
3.29474 4.27497 6.98783
3.25705 4.24161 6.84667
3.10608 4.17044 6.82926
3.17189 4.20362 6.81963
3.18854 4.1931 6.8406
3.14808 4.1992 7.01452
3.26021 4.43751 7.17555
3.20693 4.45104 7.47086
3.1735 4.31978 7.05653
3.15863 4.27561 7.10441
3.05276 4.15584 7.02617
3.12028 4.27681 7.18017
3.0993 4.29701 7.26611
3.1438 4.20495 6.97451
3.14554 4.23598 7.00434
3.07686 4.38394 7.38889
3.07059 4.25407 7.31689
3.09535 4.24996 7.0689
3.0314 4.23722 7.27053
2.95901 4.13602 7.13945
3.05881 4.21538 7.11405
3.07605 4.32464 7.40666
3.12261 4.41733 7.5715
3.15807 4.51391 7.77273
3.11934 4.32931 7.47957
3.07105 4.30146 7.37159
3.08294 4.44506 7.86641
3.02521 4.20836 7.32423
3.01652 4.30545 7.55076
3.11484 4.42059 7.66759
3.09556 4.38566 7.53726
2.89922 4.31519 7.72819
3.0203 4.31131 7.69393
3.01123 4.32366 7.69091
3.00745 4.35084 7.63821
3.01847 4.21157 7.31397
2.80076 4.25027 7.56904
2.90663 4.2687 7.74198
2.94218 4.17203 7.40332
2.89415 4.2571 7.61634
2.90835 4.28998 7.72693
2.95648 4.37226 7.84254
2.95465 4.38081 7.72796
2.90999 4.27583 7.8129
2.90199 4.26618 7.83676
2.9473 4.30069 7.91132
3.02041 4.40008 7.95352
2.85795 4.2743 7.81331
2.88045 4.33257 8.08748
2.99968 4.43875 7.91124
2.87907 4.44692 8.24533
2.86595 4.27069 7.74976
2.845 4.24781 7.82138
2.75876 4.22305 7.92758
2.8778 4.34795 8.02611
2.84329 4.25021 7.94773
2.88193 4.31407 7.91672
2.84036 4.4125 8.26538
2.81164 4.39664 8.38679
2.83215 4.42515 8.24247
2.78012 4.23144 8.03292
2.76192 4.30297 8.27221
2.79182 4.25355 8.05756
2.80007 4.37944 8.24728
2.75117 4.21928 8.01667
2.78174 4.46138 8.1984
2.72415 4.34799 8.51724
2.84313 4.45747 8.58767
2.78321 4.29506 8.18174
2.74146 4.31197 8.28842
2.70823 4.35669 8.60077
2.9064 4.46669 8.51005
2.81363 4.5098 8.65549
2.72488 4.34146 8.25481
2.70542 4.35138 8.39541
2.74625 4.42431 8.77795
2.72182 4.28991 8.39652
2.73592 4.35961 8.2765
2.64447 4.29007 8.58739
2.68526 4.36906 8.59301
2.81028 4.57319 8.97194
2.73048 4.3508 8.73856
2.77243 4.48751 8.90853
2.72003 4.47011 8.76475
2.73349 4.37771 8.62494
2.6252 4.27071 8.59278
2.59842 4.28495 8.55245
2.61203 4.2313 8.57696
2.6539 4.34482 8.75001
2.6651 4.43312 8.77719
2.63397 4.47321 9.12178
2.62448 4.28803 8.69918
2.64886 4.4319 8.95678
2.67366 4.4861 9.13769
2.55827 4.19038 8.50715
2.65143 4.41364 8.83416
2.63577 4.49665 9.22664
2.6376 4.42216 9.14135
2.63541 4.36847 8.85095
2.52835 4.23719 8.79583
2.58037 4.38764 9.16535
2.73637 4.54428 9.12843
2.5736 4.4764 9.34006
2.61061 4.40682 9.17054
2.63079 4.49959 9.24692
2.60814 4.45541 9.37658
2.6443 4.5253 9.22766
2.56533 4.31804 9.08208
2.55725 4.3749 9.18739
2.5776 4.42683 9.20624
2.51128 4.361 9.28637
2.63917 4.47973 9.32445
2.57415 4.55662 9.49711
2.53231 4.54071 9.37907
2.49586 4.47434 9.72944
2.54397 4.45308 9.31923
2.48135 4.29449 9.15621
2.50875 4.36848 9.30255
2.45695 4.34765 9.58178
2.56334 4.53544 9.55668
2.54897 4.53404 9.62168
2.50203 4.3881 9.42742
2.48728 4.44577 9.68123
2.55914 4.46622 9.63402
2.54174 4.55179 9.66782
2.51098 4.4891 9.9499
2.45748 4.46815 9.69661
2.49074 4.45626 9.72439
2.45098 4.42554 9.71702
2.45567 4.28198 9.26921
2.47608 4.44746 9.60278
2.48167 4.44333 9.90717
2.50942 4.44365 9.61308
2.42191 4.43408 9.80069
2.42241 4.46977 9.81014
2.44399 4.4987 10.0573
2.43061 4.50038 9.86714
2.44484 4.53989 9.94498
2.39851 4.4214 9.99626
2.47304 4.52107 9.97326
2.43413 4.38317 9.89769
2.52835 4.52604 9.95394
2.38853 4.56957 10.3969
2.48579 4.4067 9.80998
2.36705 4.3879 10.0568
2.52428 4.59856 9.8861
2.30129 4.30864 10.0156
2.4788 4.67092 10.5728
2.47378 4.46167 10.0363
2.42008 4.70673 10.8882
2.44235 4.59415 10.2544
2.42832 4.58467 10.4859
2.46715 4.64201 10.3289
2.36307 4.44672 10.4515
2.39097 4.42506 10.2025
2.44275 4.71497 10.6254
2.3706 4.51521 10.5452
2.42513 4.48359 10.4173
2.41059 4.60055 10.5593
2.44733 4.66847 10.9183
2.38823 4.52853 10.2661
2.29476 4.38147 10.3996
2.39795 4.55654 10.7559
2.41826 4.54319 10.59
2.46421 4.65754 10.5194
2.30348 4.58962 10.9758
2.38899 4.71089 11.098
2.40989 4.6474 10.6634
2.35598 4.64361 10.8031
2.39462 4.52235 10.6134
2.30851 4.3845 10.3719
2.32789 4.51396 10.4043
2.23977 4.4799 10.5582
2.29184 4.54493 10.8968
2.23098 4.39811 10.7671
2.30419 4.62982 11.2494
2.37595 4.61009 10.8842
2.33411 4.6314 10.9691
2.3412 4.56542 10.7209
2.22648 4.48569 11.0854
2.36861 4.61763 11.2385
2.32031 4.59164 10.8871
2.25334 4.46931 10.8338
2.29828 4.54799 10.8699
2.27595 4.65245 11.6054
2.38565 4.60008 10.9683
2.328 4.67017 11.2772
2.33341 4.73689 11.7403
2.2854 4.36166 10.616
2.25529 4.44679 10.7457
2.27801 4.6491 11.1564
2.23188 4.5471 11.1055
2.2546 4.55627 11.2438
2.29492 4.69536 11.3738
2.20509 4.56884 11.4343
2.31757 4.55122 11.0413
2.18299 4.49459 11.0392
2.16788 4.62935 11.6628
2.25326 4.61537 11.4569
2.26949 4.75799 11.6752
2.17889 4.45624 11.276
2.28673 4.71562 11.7555
2.31363 4.63757 11.4814
2.21776 4.64239 11.5407
2.2406 4.83575 12.0372
2.20832 4.63913 11.6511
2.16377 4.70089 12.0855
2.26669 4.57919 11.3813
2.23406 4.79964 12.0354
2.14957 4.41497 11.5034
2.1782 4.65505 11.5544
2.14949 4.52065 11.6139
2.24395 4.78829 11.8284
2.17105 4.6535 11.9454
2.25034 4.82456 12.1739
2.17493 4.68161 11.98
2.1934 4.68131 12.0914
2.22408 4.60425 11.6538
2.20232 4.70905 12.1727
2.19678 4.60617 11.8868
2.17921 4.6553 12.1743
2.28044 4.84979 12.3586
2.21166 4.7968 12.4723
2.16219 4.6268 12.0868
2.24429 4.9439 12.9829
2.28859 4.85173 12.4164
2.21742 4.80548 12.3994
2.25696 4.85184 12.6855
2.21374 4.7956 12.9397
2.33043 5.25371 13.7053
2.36758 5.15873 12.9256
2.19329 4.86542 12.8938
2.28874 5.15788 13.7733
2.28423 5.00934 13.1681
2.3406 4.9977 13.0267
2.20558 4.79505 12.5021
2.19493 4.77193 12.6361
2.20902 5.04596 13.0675
2.17922 4.7952 12.8697
2.22877 4.88761 12.7154
2.1045 4.74894 12.4946
2.12372 4.72119 12.5275
2.17258 4.91396 13.0831
2.10628 4.67003 12.5935
2.09617 4.84927 13.174
2.22523 4.75881 12.6071
2.11887 4.65916 12.7546
2.12842 4.79088 12.7886
2.14426 4.73901 12.7161
2.11151 4.78514 12.9318
2.1251 4.79198 12.9177
2.1564 4.86409 12.8349
2.06562 4.62237 12.1811
1.96616 4.45828 12.5555
2.13831 4.74411 12.6975
2.07851 4.83382 12.9492
2.04311 4.52824 12.3757
2.02002 4.56979 12.4602
2.04736 4.74865 12.8805
2.07264 4.53105 12.2566
1.97524 4.49353 12.7865
2.08906 4.81302 12.9274
2.08252 4.79829 13.3102
2.07278 4.607 12.6769
2.03866 4.7623 13.2839
2.11723 4.82943 13.1244
2.00737 4.87143 13.3703
2.03487 4.65886 13.1403
2.03485 4.60929 13.033
2.10427 4.83054 13.0144
2.06133 4.84962 13.4425
2.00357 4.53379 12.7661
2.03119 4.69873 12.8337
1.95613 4.59816 12.7467
2.04777 4.78959 13.14
1.97838 4.62656 13.3051
2.05607 4.79297 13.0461
1.957 4.55536 13.1144
2.03666 4.73553 12.9563
1.90144 4.52349 12.9338
2.00123 4.64428 13.4082
2.08122 4.74552 13.4115
2.02348 4.74733 13.3572
2.01966 4.738 13.4714
1.98283 4.57278 12.8308
1.97292 4.51757 12.7889
1.9325 4.58418 13.0111
1.97334 4.61894 13.0559
1.89878 4.57274 13.3067
1.962 4.65082 13.4177
1.95213 4.77956 13.6385
1.97919 4.69459 13.4359
1.97401 4.75708 13.507
1.96398 4.73175 13.7401
1.96828 4.62531 13.4665
1.94209 4.61029 13.2056
1.97448 4.73169 13.5688
1.96997 4.71709 14.0374
2.02909 4.69254 13.0958
1.93538 4.77824 13.6861
1.93178 4.60018 13.7416
2.06319 5.04898 14.28
1.98372 4.76741 13.988
1.98733 4.75181 13.6311
1.95621 4.77923 13.8885
1.98528 4.80498 13.9632
1.96541 4.77801 13.9773
1.98602 4.77474 13.7689
1.92808 4.87108 14.2928
1.92589 4.77269 14.3669
1.99162 4.79737 14.114
1.97495 4.77504 13.7044
1.93745 4.73388 14.0734
1.96992 4.95947 14.377
1.94112 4.92693 14.5591
2.00382 4.77352 13.9215
1.8773 4.76387 14.0515
1.85473 4.53607 13.6398
1.90061 4.67387 13.9201
1.88717 4.60425 13.8671
1.91836 4.80831 13.8163
1.91819 4.73311 14.1279
1.93788 4.74189 14.1374
1.84934 4.61133 14.1026
1.93637 4.90585 14.3253
1.87375 4.69334 14.2823
1.85868 4.70913 14.2485
1.92001 4.70698 14.1325
1.9182 4.74075 13.9609
1.92088 4.92676 14.6811
1.92511 4.81064 14.7848
1.90974 4.62516 13.9087
1.8883 4.82707 14.6673
1.92854 4.75948 14.3143
1.88467 4.69891 14.2656
1.89975 4.86804 14.4284
1.8816 4.77507 14.779
1.88704 4.75376 14.4502
1.86474 4.70775 14.4091
1.87309 4.73722 14.5349
1.87906 4.74203 14.53
1.87729 4.9234 15.1099
1.92961 4.89901 14.8873
1.89552 4.84045 14.7564
1.93304 4.85358 14.7042
1.87726 4.67982 14.5194
1.88943 4.8266 15.0647
1.90129 4.8726 14.8072
1.90909 4.7643 14.7641
1.89785 5.00303 15.1005
1.85886 4.81568 14.9702
1.87205 4.80755 15.017
1.92077 4.77739 14.7063
1.87267 4.71998 14.4694
1.80007 4.71724 14.7
1.84421 4.82287 14.9861
1.83057 4.86631 15.381
1.88296 4.96375 15.326
1.90542 4.99399 15.202
1.86038 4.79126 14.8337
1.83537 4.87961 15.6882
1.89941 4.83953 14.9115
1.81986 4.55603 14.3604
1.81713 4.71395 14.8216
1.81639 4.86038 15.1135
1.83976 4.88006 15.9005
1.91743 4.83727 14.667
1.7709 4.90061 16.1237
1.95665 4.92588 15.0412
1.89443 4.90776 14.768
1.74247 4.73732 15.3368
1.79504 4.72124 15.2831
1.89386 5.05785 15.6979
1.83572 4.82803 15.5553
1.85221 4.89903 15.3582
1.83974 4.81988 15.3361
1.84312 4.89452 15.3495
1.83831 4.8021 14.8951
1.78473 4.73602 15.3897
1.82606 4.89445 15.6512
1.81984 4.87742 15.7025
1.77467 4.76699 15.2776
1.8004 4.68725 14.9613
1.77557 4.74165 15.1473
1.76809 4.90766 15.9163
1.78573 4.72062 15.4404
1.77677 4.79567 15.3299
1.77522 4.78467 15.5709
1.79226 4.79908 15.5912
1.79882 4.8948 15.6365
1.79593 4.80884 15.3889
1.79429 4.93876 15.9335
1.80943 4.82681 15.6021
1.79749 4.83829 15.8795
1.80526 4.84749 15.3443
1.75197 4.88985 15.8626
1.79284 4.7852 15.7622
1.7989 4.86935 15.6039
1.77528 4.85428 15.7231
1.77666 4.86451 16.1709
1.79494 4.72488 15.31
1.74555 4.74168 15.7991
1.77105 4.77105 15.722
1.77954 4.96423 16.0194
1.85238 5.02126 16.6419
1.81714 4.97299 16.0629
1.78861 4.80071 15.3111
1.72105 4.72545 15.7069
1.74277 4.91475 16.8182
1.82683 4.95999 16.2888
1.76707 4.8295 15.8135
1.77211 4.95735 16.4796
1.8343 5.03614 16.3018
1.76262 4.92247 16.7403
1.81461 4.98716 16.1679
1.78962 5.013 16.4269
1.78784 5.01048 16.1988
1.76718 4.96731 16.5893
1.76479 4.92286 16.5803
1.78329 4.96406 16.9157
1.82593 4.96511 15.9805
1.71534 4.74741 16.0043
1.73492 4.98396 16.5198
1.72251 4.74535 15.9887
1.73642 4.88389 16.2301
1.74892 5.0514 17.17
1.80373 4.94402 16.617
1.81806 4.98967 16.5487
1.76161 4.98759 16.8588
1.7742 5.06339 16.9356
1.73766 4.96869 16.7708
1.79618 4.93648 16.62
1.78837 5.06479 16.8491
1.76722 4.86389 16.6603
1.78292 5.12923 17.3498
1.79635 4.95679 16.82
1.7593 4.88708 16.5091
1.75929 5.02156 16.8271
1.77325 5.09794 17.2795
1.77854 5.09112 16.7606
1.74386 4.97397 16.583
1.69045 4.79376 16.9561
1.76244 4.89224 16.5286
1.70837 4.80586 16.2129
1.73444 4.90985 16.6434
1.71935 4.97291 16.2275
1.70392 5.09444 17.6234
1.76328 5.11021 17.0835
1.72739 4.92347 17.4176
1.75221 4.78936 16.6618
1.73492 4.89126 16.5692
1.7476 5.12479 17.361
1.71383 4.93049 17.0807
1.73441 4.80678 16.8305
1.71759 4.95908 16.8976
1.7061 4.87733 16.7531
1.65578 4.99418 17.0605
1.72469 4.85156 17.0864
1.78949 5.19696 17.5193
1.7176 4.93117 17.1388
1.73224 5.1025 17.126
1.70088 4.99459 17.5965
1.73942 4.88777 17.0177
1.69838 5.03089 17.1825
1.69941 4.88097 17.1339
1.72734 5.12275 17.6983
1.70709 4.9452 17.4575
1.71624 4.957 17.1046
1.7083 5.06926 17.3547
1.6962 4.87757 16.8848
1.68208 5.04434 18.0798
1.771 4.82926 17.23
1.70704 5.02367 17.3651
1.69726 5.00723 16.8979
1.66141 4.84339 17.4539
1.73157 5.01548 17.3176
1.68715 5.06057 17.894
1.73451 5.16998 17.8731
1.66731 4.92223 17.386
1.70042 5.01882 17.5485
1.70428 5.05537 18.0441
1.71876 5.05342 17.5419
1.6722 4.93954 17.4277
1.6888 4.87665 17.683
1.71351 5.11332 18.1879
1.72483 5.03155 17.5762
1.69599 5.13691 17.8083
1.71764 5.10237 17.6
1.64773 5.19446 18.2291
1.72325 5.0282 18.0608
1.75131 5.15615 18.0576
1.67676 4.96397 17.5687
1.67326 5.17179 18.5759
1.68202 5.06831 17.9734
1.68743 5.15618 17.9587
1.66589 4.94089 18.3091
1.71207 4.97472 17.8941
1.73092 5.1005 17.8531
1.70649 5.20159 18.4636
1.72259 5.08871 18.4477
1.71096 5.12435 18.131
1.72394 5.26409 18.8319
1.72586 5.07541 18.2133
1.71344 5.32046 19.1159
1.7311 5.11959 18.596
1.72169 5.29792 18.6886
1.69575 5.13562 18.6118
1.69736 5.06051 18.2002
1.70769 5.03987 18.3367
1.69704 5.01766 18.3947
1.73548 5.27031 18.7906
1.7302 5.34602 18.6821
1.71822 5.21625 18.543
1.6977 5.15225 18.3957
1.70805 5.26073 19.5549
1.79833 5.40478 19.5217
1.74844 5.59492 20.2112
1.80842 5.71357 21.2408
1.86376 5.5266 18.9792
1.72711 5.56292 21.2025
1.93609 5.92777 20.2259
1.7265 5.36169 20.2267
1.79792 5.37524 19.2483
1.75013 5.27865 18.9611
1.70836 5.32565 19.172
1.70792 5.26991 18.9222
1.69994 5.23467 19.05
1.7086 5.33189 19.539
1.73008 5.30893 18.7915
1.67888 5.32738 18.9191
1.67471 5.05742 19.5866
1.73788 5.16551 19.326
1.75972 5.30676 19.3878
1.7253 5.2787 18.3034
1.59878 5.03473 19.3274
1.70401 5.31897 19.5613
1.76327 5.30781 19.0676
1.67939 5.17667 18.845
1.68775 5.18705 18.739
1.65221 5.27939 19.1689
1.66957 5.11383 18.4893
1.63763 5.09526 18.4089
1.63062 5.12587 18.8777
1.63058 5.17764 19.4219
1.67294 4.96459 18.7363
1.62479 5.15323 18.3575
1.6075 5.07737 18.7248
1.59631 4.81343 18.0116
1.61619 5.10282 19.0645
1.66889 5.10475 18.2552
1.56313 5.22682 19.6085
1.66698 5.2186 19.0717
1.66651 5.2335 19.4138
1.71895 5.26949 19.1057
1.60775 5.10856 19.1546
1.63582 5.17932 19.4156
1.65748 5.14463 18.6877
1.64146 5.25039 19.2732
1.65402 5.1543 18.7786
1.59705 5.01555 19.6583
1.70406 5.24765 19.3936
1.67131 5.20507 19.4829
1.69113 5.16717 19.2248
1.62264 5.0637 19.1712
1.66122 5.30671 19.0953
1.61948 5.00844 18.9953
1.61312 5.10013 19.4042
1.66585 5.34292 19.2013
1.61502 5.17433 19.2136
1.63536 5.04805 19.4574
1.6763 5.32808 19.8769
1.68898 5.37875 19.4484
1.62701 5.02689 18.9292
1.61351 5.07354 18.7828
1.59989 5.22719 19.6788
1.64728 5.07514 19.3478
1.6636 5.25043 18.9847
1.57034 5.06338 19.1796
1.62273 5.06363 19.7254
1.64175 5.0927 19.1522
1.62351 5.18395 19.3168
1.64261 5.21791 19.6702
1.66714 5.25809 19.2869
1.62026 5.17908 18.9362
1.57062 5.18415 20.1095
1.63899 5.19913 19.4531
1.63458 5.34676 19.759
1.60841 5.11822 18.8925
1.56232 5.03482 19.7456
1.65081 5.06987 19.4199
1.62101 5.15151 19.3496
1.63108 5.1989 19.1285
1.54851 5.00679 19.4246
1.62458 5.14396 20.018
1.62591 5.2235 19.3408
1.59026 4.8561 18.6379
1.55724 5.01867 19.2975
1.57639 5.17676 20.2624
1.66951 5.26769 18.7501
1.55116 5.08692 19.8924
1.6662 4.99185 18.9945
1.59015 5.2381 20.4536
1.65522 5.17726 19.4877
1.59063 5.20096 19.0289
1.55648 5.02874 19.6259
1.60443 5.18288 19.6973
1.60304 5.00521 19.2608
1.5851 5.17792 19.8987
1.62884 5.14383 19.3762
1.58429 5.13665 19.4625
1.57385 5.07757 19.1864
1.57584 4.86324 18.9825
1.57503 5.29153 20.1639
1.6163 5.18701 20.068
1.61569 5.00553 19.2653
1.59354 5.33615 19.9223
1.63839 5.40701 21.0802
1.66813 5.12536 19.2403
1.59383 5.22535 19.6594
1.55976 5.07886 19.8578
1.62083 5.11614 19.7464
1.57666 5.00651 19.2418
1.56441 5.14543 19.8076
1.60851 5.29581 20.3107
1.62211 5.28834 20.2498
1.61974 5.16461 20.2208
1.61129 5.10036 19.2429
1.60316 5.06156 19.5029
1.56672 5.07922 19.4732
1.57874 5.06238 19.7278
1.5777 5.0315 19.1461
1.52154 5.05203 19.1588
1.51894 5.12037 19.8769
1.59429 5.0599 19.7543
1.57337 5.20198 19.74
1.56702 5.08462 20.3329
1.61623 5.00894 18.4555
1.51044 5.14489 19.6803
1.58065 5.17167 20.1598
1.55526 5.34725 20.4095
1.61146 5.03992 19.6483
1.54121 5.12012 19.9102
1.58951 5.07878 19.5945
1.54829 5.01175 19.7483
1.57818 5.22553 20.4317
1.61848 5.35785 19.6844
1.55766 4.99843 20.1979
1.61955 5.22828 19.9518
1.55046 5.04265 20.1684
1.61674 5.10919 19.4803
1.54283 5.0161 20.2369
1.64616 5.33964 20.0367
1.5789 5.16193 19.9256
1.56028 5.09654 19.9962
1.5382 5.39726 20.3291
1.58565 5.14598 20.0903
1.56783 5.30597 20.4233
1.555 5.26296 20.704
1.60966 5.23577 20.3283
1.57497 5.11446 19.9774
1.56072 5.17553 19.9536
1.57874 5.27 20.7072
1.62758 5.10164 19.3942
1.50792 4.98505 20.4036
1.58988 5.24117 20.5581
1.60286 5.27562 19.5187
1.52322 5.21729 20.5409
1.57412 5.2754 20.0872
1.54703 5.07623 20.3452
1.58455 5.26074 20.6116
1.57927 4.97957 18.8964
1.43967 4.90108 20.046
1.57221 5.06291 19.2727
1.51224 5.00364 19.9258
1.57819 5.22015 20.0952
1.54081 5.22063 20.4205
1.59946 5.02009 20.1869
1.57511 5.23088 20.9199
1.60276 5.3569 20.7396
1.56862 5.10299 20.749
1.61608 5.25134 19.8304
1.55035 5.27465 20.5965
1.59282 5.09677 20.5538
1.61142 5.18642 20.1426
1.52732 5.27196 20.3179
1.50406 5.29587 20.8807
1.57521 5.32018 20.4298
1.56024 5.04029 19.5547
1.51562 5.04187 20.4676
1.56543 5.20258 20.3186
1.55861 5.32222 21.2045
1.59761 5.1929 20.4871
1.56488 5.19825 21.1244
1.6239 5.29928 20.397
1.54214 5.16087 20.8192
1.576 5.29642 20.227
1.54703 5.18467 21.1523
1.57591 5.20148 20.0417
1.53823 5.3281 20.4106
1.52195 5.26557 20.7852
1.5634 5.14679 20.1984
1.50989 5.11399 20.969
1.60891 5.38468 20.9775
1.59275 5.34411 20.3342
1.51637 5.05762 20.1331
1.55802 5.25755 20.0309
1.50551 4.99002 20.322
1.52848 5.23043 19.8456
1.51129 5.1193 19.9492
1.51614 5.02836 20.479
1.54401 5.14228 20.2955
1.56134 5.20897 20.203
1.53054 5.06024 20.1981
1.52566 5.10528 20.9132
1.61113 5.24031 20.2778
1.56364 5.22317 20.3809
1.55159 5.26087 21.5534
1.59775 5.21537 19.9055
1.53401 5.1363 20.6135
1.53667 5.28702 21.5068
1.62205 5.36137 20.6732
1.54457 5.13163 20.2592
1.51044 5.13502 20.6122
1.54936 5.13547 20.8773
1.57518 5.29513 20.3293
1.53556 5.24661 20.7059
1.54214 5.15679 21.0131
1.61147 5.15615 20.8296
1.5715 5.20836 21.0451
1.58307 5.40673 20.6849
1.53506 5.22051 20.7281
1.56791 5.00114 20.6784
1.57717 5.39227 20.5359
1.5662 5.17216 21.0658
1.56543 5.34097 20.9837
1.58601 5.02374 19.6934
1.51727 5.12306 20.062
1.50052 5.30747 21.5455
1.61627 5.26024 20.8363
1.55203 5.27998 20.8358
1.53852 5.16215 20.9357
1.56766 5.26533 20.5592
1.54371 5.13927 20.0373
1.48841 5.08803 20.6017
1.5243 5.20339 20.4144
1.49557 5.17729 20.9501
1.55944 5.05944 21.0535
1.55382 5.33944 21.3785
1.63107 5.25329 20.7414
1.55878 5.31285 21.0216
1.56113 5.25016 20.2516
1.5357 5.09223 20.6727
1.55474 5.25035 20.4218
1.50533 5.38457 21.4135
1.61558 5.38258 21.7531
1.57782 5.11423 20.5914
1.53461 5.07948 19.5365
1.46355 5.05518 20.1695
1.50917 5.0751 20.7345
1.53752 5.20426 20.1846
1.52395 5.10418 20.5378
1.53102 5.21742 20.7664
1.52396 4.98244 20.5055
1.54026 5.17093 20.2046
1.51475 5.33862 22.042
1.62312 5.34936 20.8938
1.54131 5.26817 22.1218
1.61253 5.31266 20.5844
1.53692 5.38488 21.0997
1.5539 5.16081 21.2687
1.59683 5.3802 20.9435
1.56181 5.12152 20.6222
1.53474 4.86047 20.0531
1.47425 5.18067 20.7697
1.5435 5.27927 20.5757
1.52843 5.33796 21.1163
1.55073 5.16745 20.9455
1.52971 5.11627 21.0555
1.57104 5.4383 21.1761
1.57726 5.29493 20.9507
1.52866 5.17086 21.1818
1.59004 5.34197 20.7492
1.52622 5.28814 20.8767
1.5589 5.23627 21.5065
1.56663 5.35264 22.1534
1.63583 5.34869 20.0839
1.50334 5.11605 20.8131
1.55829 5.45863 22.1891
1.62316 5.42369 20.4774
1.5357 5.13973 20.7101
1.53697 5.2456 21.1912
1.5447 5.37484 21.6861
1.58064 5.38852 20.9454
1.5689 5.38947 21.3028
1.59927 5.30244 21.7145
1.60736 5.35301 20.9687
1.57014 5.27462 21.088
1.55381 5.17153 20.7599
1.53912 5.18909 21.359
1.56319 5.37894 21.4291
1.59792 5.58448 22.9353
1.66699 5.51698 21.3892
1.58674 5.52077 22.686
1.6794 5.72517 22.9632
1.67706 5.81744 23.8875
1.72631 6.28292 25.446
1.81246 6.04977 22.7902
1.65253 0 0