# pn-170911/RbIIF-67-RbIIA-1280-1959.psd
# Power spectrum* (dif=0,1,2) (really just |FT|^2)
# NOTE: only the first half! (symmetric)
# weeks: 1280-1959
# 589 clock-days, 8 excluded
# PSD: 1441
5945.91 0.16964 0.00842651
269453 2.58883 0.00430164
1.65261e+06 37.6547 0.00515084
135800 4.67616 0.00438859
105835 7.09449 0.00469671
51245.3 4.67856 0.00484713
36151.3 4.9501 0.00505373
26653.6 4.61091 0.00531634
20821.3 4.84203 0.00583597
15288.3 4.4098 0.00608653
12771.4 4.53531 0.00629941
10132.1 4.30812 0.00641424
9626.04 4.8056 0.00718967
7297.44 4.37992 0.00742527
6124.49 4.21638 0.00804771
5681.22 4.476 0.00904572
5257.7 4.73327 0.0107548
4300.41 4.46617 0.010221
3960.91 4.56962 0.0114702
3496.91 4.45139 0.0122099
3216.29 4.4042 0.0123032
2872.35 4.38666 0.0129298
2838.89 4.92303 0.0155765
2417.64 4.30633 0.0152723
2150.46 4.2738 0.0157005
2146.77 4.59988 0.0187693
1840.49 4.34224 0.0172871
1634.31 4.06739 0.018432
1660.11 4.64443 0.0218953
1620.62 4.6963 0.0229001
1373.96 4.15382 0.0222539
1326.46 4.7686 0.0273582
1285.94 4.62321 0.0266086
1181.47 4.66049 0.0282802
1098.02 4.48106 0.0296092
1058.89 4.4285 0.0297396
1027.99 4.91186 0.0361186
937.022 4.55546 0.0336702
913.651 4.78126 0.0363606
892.829 4.70951 0.0384097
787.887 4.51987 0.0393118
729.783 4.33019 0.0384613
758.138 4.621 0.0436002
674.713 4.29479 0.0425997
686.655 4.51925 0.0460897
659.408 4.66133 0.0479633
608.34 4.5651 0.0491641
561.34 4.34181 0.04894
548.539 4.31871 0.0513449
531.225 4.52806 0.057079
502.669 4.2285 0.0546758
477.927 4.52871 0.0609036
478.816 4.4921 0.0628236
449.219 4.40864 0.0636014
481.638 4.78922 0.0713256
441.317 4.56895 0.069591
371.624 4.16181 0.0671326
404.173 4.57362 0.0749968
413.526 4.79751 0.083015
375.343 4.71173 0.0823705
384.073 4.752 0.0853684
339.533 4.48639 0.083447
342.527 4.55813 0.0864302
343.429 4.51288 0.0895283
332.799 4.78485 0.098843
295.67 4.61974 0.0980885
290.143 4.40096 0.0935528
283.732 4.43911 0.0978006
282.565 4.74695 0.107608
276.277 5.05247 0.117343
270.371 4.71886 0.114272
261.838 4.48943 0.111591
236.889 4.34001 0.112184
231.51 4.42121 0.118832
233.819 4.67098 0.12388
222.742 4.34314 0.11928
215.697 4.36453 0.122809
222.609 4.6773 0.134841
196.668 4.28784 0.127424
217.022 4.70519 0.144476
208.908 4.72791 0.149293
195.705 4.42695 0.14389
212.276 4.68619 0.154834
202.889 4.97024 0.170315
177.342 4.5244 0.153666
182.025 4.47102 0.157852
180.855 4.57651 0.164011
164.952 4.40418 0.163157
168.49 4.7682 0.180291
167.077 4.75865 0.181408
176.868 4.91058 0.191093
141.352 3.98921 0.164039
155.866 4.51404 0.189548
153.127 4.77438 0.201015
155.561 4.79403 0.202911
148.585 4.76409 0.207602
141.072 4.70237 0.210899
150.596 4.92817 0.222333
137.365 4.453 0.205313
130.518 4.40091 0.210237
134.345 4.71274 0.22854
135.219 4.72363 0.234165
126.215 4.61261 0.234826
125.921 4.49603 0.232444
127.662 4.65704 0.244963
116.242 4.59287 0.246028
124.657 5.02938 0.274309
114.182 4.64697 0.253132
112.616 4.5701 0.255227
117.895 4.72035 0.264547
109.282 4.41971 0.256027
113.169 4.97284 0.297093
103.973 4.47087 0.267069
97.1073 4.17836 0.255078
101.933 4.68079 0.296107
98.9066 4.81454 0.306422
93.6836 4.3724 0.28265
94.0289 4.55745 0.296321
92.3431 4.5709 0.30184
91.0303 4.5114 0.306764
88.6221 4.41682 0.303483
93.7741 4.67647 0.330861
87.7601 4.64644 0.327322
85.7652 4.64889 0.335933
83.1844 4.54788 0.332001
82.1534 4.52803 0.339195
79.1892 4.48306 0.344418
81.0985 4.61597 0.35755
78.8433 4.44419 0.346138
76.5009 4.71878 0.375121
74.9896 4.52574 0.365983
81.359 4.81046 0.391213
75.1967 4.46498 0.370061
72.0733 4.68689 0.398641
69.0408 4.08051 0.348929
69.174 4.33078 0.379761
69.2443 4.45236 0.394159
66.0817 4.56209 0.416238
66.7784 4.61038 0.415415
60.7885 4.14852 0.38927
68.8879 4.77458 0.445332
65.6626 4.56862 0.435242
64.2431 4.52693 0.438232
60.2743 4.31893 0.417153
63.5958 4.62038 0.454573
65.0201 4.90322 0.489582
60.9046 4.51961 0.46328
59.3384 4.34624 0.444008
57.1511 4.49749 0.468403
58.9782 4.53008 0.473536
63.6957 5.06683 0.542445
56.2605 4.45736 0.484058
52.0064 4.69418 0.515297
57.4826 4.80231 0.538349
55.1798 4.39387 0.490428
50.127 4.40811 0.508925
54.0106 4.58134 0.532294
53.8636 4.62265 0.52938
55.7009 4.78249 0.570405
50.9763 4.62353 0.563759
55.3129 4.98005 0.600077
50.7525 4.80031 0.590539
52.1692 4.87684 0.600677
47.0876 4.45678 0.563991
48.6092 4.62385 0.592407
50.6257 4.72764 0.606523
46.1833 4.72058 0.614063
43.8944 4.47604 0.595495
47.2985 4.95302 0.662934
46.0948 4.75762 0.653721
45.3649 4.7186 0.647821
44.5486 4.7857 0.6599
43.1034 4.42324 0.614058
43.9838 4.50733 0.63893
45.1139 4.79521 0.689748
45.2763 4.81701 0.698244
41.22 4.6952 0.681846
41.8989 4.68017 0.686937
43.0262 4.72078 0.699602
41.8554 4.81532 0.739677
42.4775 4.94761 0.762661
42.755 4.69373 0.718115
40.0488 4.65561 0.746255
38.2921 4.52629 0.714208
43.7623 5.09857 0.813556
36.7638 4.41375 0.70772
39.1789 4.54362 0.743133
41.2835 4.86583 0.786062
38.8425 4.62898 0.773169
39.2486 4.77859 0.7999
38.9748 4.87406 0.835534
35.8916 4.56811 0.795158
37.8404 4.78988 0.839876
36.3095 4.63545 0.817581
36.1437 4.67057 0.830975
36.1966 4.97117 0.8988
35.278 4.70943 0.853759
34.7845 4.73268 0.8593
35.4632 4.56802 0.855712
34.2063 4.599 0.864803
33.3337 4.67725 0.867273
33.6929 4.86233 0.922003
31.8964 4.3166 0.824314
30.788 4.41262 0.856974
32.3893 4.6081 0.896725
30.9493 4.82942 0.951648
32.1605 4.6833 0.924394
30.2217 4.61971 0.933481
31.0102 4.6765 0.939267
31.4241 4.82957 0.986788
27.7946 4.32405 0.905266
28.5881 4.48613 0.929734
29.7791 4.81158 1.02111
30.1339 4.65757 1.00531
30.9656 4.89838 1.05074
26.7757 4.52059 0.983178
27.8059 4.25043 0.918367
28.0768 4.70876 1.05028
29.4252 5.02707 1.11035
29.5706 4.91098 1.11545
29.6971 5.0005 1.13225
27.3347 4.57049 1.05446
29.6471 4.85312 1.11869
27.4778 4.64759 1.09334
28.1958 4.64963 1.08002
30.415 5.35612 1.27237
25.9287 4.64907 1.12085
26.2859 4.91607 1.19664
25.2709 4.44677 1.07252
24.9736 4.48656 1.12363
26.8299 5.1277 1.27512
26.2571 5.08794 1.28544
23.7541 4.50562 1.14063
26.6169 4.94316 1.23575
25.1034 4.64072 1.19812
26.9124 4.84885 1.25483
23.8209 4.59818 1.19677
21.7737 4.22167 1.11817
25.0096 4.8616 1.28375
22.2767 4.43768 1.18604
24.073 4.62134 1.25336
22.5949 4.48342 1.21056
23.1952 4.56507 1.24839
22.9439 4.74185 1.28605
21.5737 4.80054 1.33546
24.2401 5.00658 1.38957
22.8895 4.92349 1.38481
21.5671 4.56855 1.29355
21.139 4.52397 1.31064
22.7749 4.73383 1.36109
21.3371 4.42037 1.286
21.3693 4.45784 1.29803
21.6337 4.63274 1.3589
21.4336 4.53764 1.37324
21.2213 4.77677 1.45443
20.6531 4.58079 1.39078
21.135 4.81037 1.43438
19.6214 4.62928 1.43912
21.4317 5.08706 1.54634
19.0538 4.53665 1.4247
19.7425 4.62793 1.47776
21.6812 5.21243 1.64703
21.2512 5.21021 1.62099
19.5667 4.83282 1.53904
19.3269 4.66964 1.50017
20.126 4.90199 1.60266
19.1324 4.49312 1.48781
18.5627 4.40149 1.47449
19.5057 4.96165 1.62685
19.0043 4.87569 1.673
19.374 4.93394 1.61792
17.9339 4.45848 1.54021
18.2286 4.65137 1.58391
18.072 4.83398 1.69467
19.4762 4.86824 1.65219
18.5439 4.92184 1.71194
17.0712 4.67878 1.67835
16.3715 4.38149 1.57737
17.0501 4.68043 1.67561
18.7635 4.84714 1.73279
17.6813 4.70794 1.69786
16.8302 4.90145 1.80066
16.8206 4.57755 1.70609
17.5846 5.10944 1.88608
17.006 4.90203 1.82114
16.7624 4.84704 1.83269
17.8039 5.1421 1.89948
16.7817 4.64958 1.74585
16.9708 4.8361 1.83028
15.3507 4.6945 1.7864
14.6933 4.34438 1.70727
16.2275 4.93299 1.93023
16.5875 4.93306 1.95318
14.795 4.4113 1.74697
15.5577 4.81433 1.94891
15.4592 4.71732 1.88567
14.8349 4.47699 1.81783
14.7228 4.73163 1.9438
15.474 4.71454 1.90921
15.8397 4.80191 1.99418
15.4921 4.88379 2.00925
13.9165 4.58394 1.94866
15.4229 5.14291 2.14562
15.866 5.08727 2.13051
14.4213 4.61946 1.97285
15.0712 4.86979 2.04269
14.5454 4.86639 2.12342
15.7224 5.08043 2.23646
14.9246 4.95204 2.09131
13.7801 4.59881 2.03227
12.7157 4.24127 1.86534
14.0223 4.78602 2.15168
13.2762 4.36038 1.98625
13.4472 4.49768 1.98398
13.7783 4.47803 2.01466
13.9809 4.8485 2.18831
12.8669 4.74413 2.15115
12.9304 4.58995 2.10936
13.4199 4.70832 2.20092
12.7552 4.51902 2.17491
13.268 4.53244 2.12339
14.0642 4.87946 2.23864
14.5371 5.41876 2.5535
12.35 4.74314 2.30507
12.994 4.5071 2.08703
11.8245 4.43342 2.24145
13.5333 4.88886 2.35107
12.7292 4.71746 2.37059
12.4403 4.52856 2.17236
13.5991 5.01924 2.50957
12.8329 4.61176 2.28333
12.897 4.87939 2.41787
13.3189 5.09427 2.55856
13.2828 4.72099 2.35775
12.386 4.64327 2.33332
12.5296 4.85952 2.42847
10.8298 4.44666 2.31558
12.0889 4.77857 2.50733
13.155 4.94992 2.5765
12.2702 4.95694 2.60263
12.2012 4.99761 2.65077
11.7806 4.873 2.62679
12.5614 5.0325 2.60995
11.8006 4.79924 2.56152
12.1817 4.93424 2.65992
12.2857 4.94905 2.70124
12.2039 4.656 2.54367
12.1645 4.64807 2.53847
11.4602 4.77057 2.63282
11.5975 4.83301 2.63795
12.4082 5.0694 2.84316
11.5089 4.8106 2.67792
12.242 5.20645 2.88885
11.1716 4.82291 2.75367
11.8527 5.17672 2.90853
11.0419 4.581 2.60497
10.8859 4.66889 2.69592
10.8726 4.6336 2.64842
10.3805 4.63429 2.68869
10.9909 4.61535 2.73877
11.0145 5.09121 2.95367
11.2529 4.98771 3.08471
11.5874 5.19881 2.9301
10.0811 4.25581 2.57293
11.5146 5.06473 3.00745
10.4685 4.57011 2.72931
10.3452 4.95289 2.98434
10.3415 4.61296 2.84474
9.45601 4.5611 2.79233
9.79266 4.40099 2.71616
10.2879 4.70251 2.9014
10.0832 4.64389 2.96609
10.6364 4.79464 2.91123
10.1752 4.74961 2.96265
10.1479 4.94393 3.07201
9.73036 4.75721 3.0985
10.5021 5.095 3.18974
10.368 4.89931 3.15809
10.0982 5.02155 3.25754
9.2539 4.63347 2.99687
10.2762 5.09531 3.29382
9.96682 4.65729 3.10089
9.74534 4.85114 3.21569
10.051 5.01336 3.34016
9.63834 4.63679 2.97071
9.64565 4.69773 3.2051
10.1912 4.93736 3.25379
9.37813 4.92557 3.36551
10.1555 4.95213 3.28394
10.6537 5.21332 3.53533
9.60357 4.71091 3.34417
10.2206 4.97087 3.36022
9.54628 4.89849 3.39725
9.18146 4.79475 3.32022
9.1285 4.65681 3.2973
9.12781 4.81307 3.32435
8.89408 4.57166 3.16952
9.08269 5.08099 3.56649
9.16219 5.02995 3.51203
9.36994 4.9601 3.48041
8.63548 4.72503 3.41811
8.4362 4.58133 3.24965
8.51225 4.62353 3.40183
9.16297 5.20982 3.75167
9.11778 4.96038 3.60875
9.10799 5.07471 3.73613
8.7453 4.9249 3.5501
8.59985 4.91562 3.63125
8.34075 4.48433 3.44464
8.40879 4.66247 3.49714
8.66284 4.95844 3.64532
8.78449 4.88501 3.64528
8.21693 4.67412 3.64171
8.92848 5.10484 3.86147
8.56684 4.99167 3.83722
8.13068 4.43553 3.35601
8.73771 5.04973 3.86466
8.69642 5.20249 4.01196
7.32172 4.4675 3.50969
8.28101 4.85455 3.80655
7.82227 4.60123 3.58872
8.05662 5.03838 3.89089
8.12222 4.98332 3.93412
8.00969 4.72038 3.83676
7.60936 4.99321 4.03089
7.98629 4.74684 3.85566
8.6427 5.16644 3.97287
7.67966 4.84628 4.01479
7.63173 4.31003 3.37784
7.55273 4.82417 4.04743
8.06687 4.78165 3.87822
8.46451 5.31733 4.22271
8.07256 4.97148 4.20072
7.84892 4.9829 4.06522
7.86823 4.898 4.14989
7.46779 4.70544 3.86114
7.43381 4.65694 3.89893
7.43342 4.73858 3.98876
7.65209 4.99791 4.16736
7.53506 5.14505 4.29089
6.76762 4.77433 4.29281
7.44103 5.07447 4.31789
7.71519 4.98337 4.34755
7.3703 4.77183 4.0302
7.26894 4.96154 4.30323
7.39525 4.92482 4.38248
7.57333 5.10918 4.40706
7.04844 4.72353 4.27276
8.13365 5.26579 4.51823
6.98062 4.50555 4.08266
7.26347 4.85073 4.28029
6.99366 4.80411 4.26756
7.30769 5.2989 4.90868
7.66648 4.92027 4.36368
7.34592 4.90072 4.36699
7.54863 5.11254 4.75963
6.99514 4.69477 4.398
7.28759 5.17902 4.64402
6.6895 4.76667 4.33467
6.83358 4.56705 4.15789
7.17615 5.19195 4.84966
6.95713 4.87251 4.61763
6.92732 4.98171 4.62719
6.88456 4.58301 4.18101
6.9826 4.93945 4.70924
7.0443 5.10097 4.90852
6.93473 5.02299 4.71842
7.24644 5.18107 4.75501
6.16497 4.7428 4.56744
6.35555 4.8101 4.53984
6.9012 5.0925 4.89095
6.66484 4.85031 4.74419
6.51234 4.66494 4.7317
7.1506 5.10017 4.91114
7.14612 5.42795 5.19697
7.10249 5.10509 4.97963
6.6131 4.86433 4.8036
6.33725 4.78002 4.78345
5.98378 4.61028 4.75842
7.08978 5.24167 5.11788
6.69214 5.0643 4.95874
6.24496 4.75589 4.82938
5.92771 4.81134 4.98325
6.68327 5.20977 5.11402
5.8051 4.33605 4.51562
6.42433 4.81128 4.81834
6.13107 4.75518 4.98961
6.61204 4.9956 5.11821
6.86768 5.01053 5.14123
6.79581 5.32432 5.41987
6.46376 5.0538 5.25408
5.96477 4.74367 4.9258
5.77276 4.82372 5.33584
6.29025 4.81384 4.96602
6.29973 4.90863 5.07129
5.95974 4.8242 5.02792
5.90505 4.80069 5.28826
5.79099 4.75685 5.07187
6.08666 5.08385 5.38441
6.16433 5.14178 5.52811
5.56517 4.62658 5.14046
6.01319 4.79227 5.04121
5.76917 4.76387 5.19441
5.66913 4.84095 5.40433
6.67429 5.08168 5.39588
5.73936 4.64033 5.18293
5.91048 4.83367 5.32583
5.84926 4.86261 5.454
6.20335 5.15708 5.5087
5.81299 4.79914 5.10121
5.80224 5.03454 5.79124
5.5071 4.68945 5.4935
5.91572 4.90233 5.38403
5.91535 4.90113 5.42739
5.83525 4.75202 5.29948
5.93626 5.20334 5.86332
5.6551 4.78196 5.58386
5.80492 5.12004 5.98553
5.83903 4.90313 5.70923
6.09495 5.25056 5.82739
5.82346 5.21099 6.04934
5.85168 4.81379 5.56906
5.66272 5.39735 6.31535
5.48456 4.94294 5.84983
5.72187 4.92165 5.59241
5.32868 4.89356 5.83537
5.48049 4.8193 5.96996
5.88525 5.35257 6.27597
5.56178 5.09144 5.96626
5.3759 4.48179 5.25349
5.74382 4.91488 5.86844
5.68165 5.27109 6.34995
5.46915 4.8024 5.65842
5.1235 4.84791 5.90118
5.50673 5.23189 6.41627
6.0153 5.53578 6.52155
5.11223 4.95066 6.11387
5.06893 4.70196 5.77856
5.18854 4.87631 6.03991
5.69553 5.26571 6.41586
5.21396 4.81017 6.22861
5.17685 4.68794 5.7956
5.35106 4.71574 5.85601
5.42404 5.12476 6.49268
5.24228 5.17247 6.3159
4.98138 4.62923 5.77657
5.16419 4.97811 6.20562
5.18305 5.02755 6.61772
5.47476 5.22067 6.50483
5.79596 5.68212 6.90096
5.06071 4.80474 6.24792
5.50673 5.40677 6.87282
5.3385 5.26467 6.7432
5.25635 5.12728 6.69439
5.08036 4.74368 6.26333
4.98829 5.02146 6.50247
5.40286 5.32132 7.15939
5.50068 5.48179 7.01228
5.20605 5.26927 6.84251
4.82342 4.66513 5.9705
5.14647 5.16052 6.6889
4.95484 5.02027 6.7603
5.18339 4.99878 6.61937
4.93652 5.13743 6.79331
5.16916 5.33662 7.17882
4.74563 4.69027 6.53429
5.32346 5.47032 7.22791
5.05617 5.58545 7.07614
4.69983 5.05474 7.15054
5.03186 5.37739 7.23496
4.95058 5.09785 7.1208
4.91743 5.40465 7.21599
4.67193 4.94601 6.82976
4.85086 5.21445 7.26913
5.19353 5.53022 7.73747
5.23874 5.24771 7.1206
5.36608 5.24599 7.22905
5.34256 5.74034 7.80726
4.74812 5.40388 7.74017
5.1756 4.96346 6.87536
4.98993 5.09096 6.81157
5.02303 5.37367 7.45138
4.78533 5.1249 7.22693
4.55021 4.97566 7.13018
4.54252 5.18441 7.88776
5.47588 6.12991 8.25958
4.9747 5.31584 7.2942
4.43644 5.13797 7.70109
4.91563 5.10445 7.35736
5.00603 5.29294 7.30785
4.70331 5.15701 7.28129
4.42418 4.9594 7.37136
4.53667 5.16348 7.60098
4.44937 5.23219 7.46976
4.3954 5.04509 7.43544
4.04496 4.55829 6.75113
4.32351 4.94022 7.22676
4.37737 4.83627 7.0744
4.4037 5.20101 7.5902
4.29043 5.13928 7.57599
4.3457 4.90648 7.37237
4.36107 5.07294 7.65806
4.44054 5.04776 7.32655
4.07412 4.81112 7.13233
4.20876 4.74082 7.25581
4.69466 5.01318 7.29176
4.12288 4.91217 7.42175
4.24947 5.00709 7.55502
4.46778 5.38303 8.39527
4.87088 5.68711 8.64654
4.23423 5.06453 7.86188
4.58402 5.19248 7.89871
4.60213 4.89828 7.26046
4.09557 4.89744 7.91319
4.47584 5.3008 7.95115
4.59669 5.43632 8.16457
4.23462 5.25799 8.35292
4.25806 4.87229 7.54915
4.05772 4.7622 7.76912
4.3681 5.28352 8.04321
4.09926 4.78217 7.56083
4.17184 4.92609 7.62111
4.08597 4.81636 7.55759
4.15497 4.85022 7.51581
4.05761 5.05574 8.09609
4.06688 4.67084 7.25363
3.7997 5.00238 7.77994
4.16283 5.11404 8.33595
3.96761 5.22835 8.51274
4.20612 5.30855 8.56236
4.25549 4.90567 7.62366
4.0808 4.85165 8.09516
4.20419 5.44843 8.74251
4.18275 5.14835 8.54273
4.15241 5.20023 8.48973
4.0095 5.10013 8.30511
3.8047 4.71947 7.84627
4.01851 5.30398 8.8032
4.12271 5.14101 8.73656
4.31155 5.26328 8.50294
4.22702 5.29036 8.81007
4.27827 5.56355 9.13569
4.25853 5.08351 8.00936
3.90793 4.82416 7.80101
3.88567 5.22595 8.81403
3.72932 5.01577 8.701
4.11072 5.17118 8.49164
4.07303 4.99386 8.22951
3.89082 5.04182 8.14095
3.8254 4.97398 8.61265
3.7875 4.95529 8.6369
3.8716 4.86284 8.20645
3.9163 5.19177 8.77462
3.7832 5.27245 9.18806
4.08187 5.47512 9.36309
4.02953 5.23093 8.82056
3.79969 5.10747 8.87798
4.15136 5.1715 8.86081
3.88925 5.23971 9.05991
4.05041 5.31719 9.59824
4.05001 5.42608 9.27616
3.78079 5.18735 9.1648
3.84558 5.2652 9.17562
3.89642 5.02712 8.59437
3.59432 4.89746 8.60299
4.02776 5.38243 9.49833
4.07326 5.38705 9.22275
3.74545 4.96401 8.82033
3.69912 5.30223 9.7863
4.09396 5.62439 9.72386
3.6268 4.83154 8.92528
3.83245 5.13027 8.75893
3.34273 4.81178 8.90743
3.88602 5.3679 9.57087
3.76073 5.05828 9.11706
3.71829 5.16661 9.51584
3.87427 5.24555 9.49695
3.86498 5.08575 8.97206
3.47383 4.74313 9.12047
3.62439 4.78481 8.97283
3.81179 5.27625 9.10904
3.56315 5.22249 9.77317
3.54135 4.66486 8.55595
3.62136 5.34488 10.1277
3.50313 4.90184 8.83206
3.67018 5.23407 9.50557
3.46643 5.25188 10.1029
3.9611 5.23363 9.65779
3.77416 5.2523 9.44325
3.53654 4.99023 9.41479
3.50778 5.0493 9.83238
3.61572 5.18642 9.88285
3.61232 4.90134 8.78535
3.4894 5.07048 9.60556
3.64473 5.69379 10.7295
3.64245 5.50069 10.0988
3.37393 4.49252 8.51763
3.4709 4.95064 9.93186
3.68856 5.38002 9.97531
3.56216 5.08072 10.0682
3.46222 4.78699 9.0585
3.32049 4.46641 8.39301
3.22838 4.65143 8.74645
3.35383 5.05815 9.96761
3.48413 5.04288 9.70917
3.55308 5.47213 10.4301
3.38952 5.15957 10.1832
3.5434 4.8102 9.0792
3.33925 5.26385 10.4593
3.64312 5.42838 10.2355
3.42652 5.2572 10.4347
3.57473 5.28349 9.81994
3.19751 5.12279 10.6929
3.44189 5.0194 10.21
3.44871 4.96801 9.81038
3.41242 5.09422 10.1493
3.55739 5.3056 10.368
3.58441 5.57661 11.1062
3.38492 5.09022 10.0939
3.27283 4.90057 9.79973
3.47196 5.21682 10.2125
3.46304 5.01635 10.2701
3.34234 5.22243 10.5681
3.51166 5.57783 11.1185
3.48452 5.14432 9.81889
3.12969 4.88747 9.80458
3.09856 4.70607 9.91197
3.38568 5.37088 11.0931
3.33222 5.14916 10.1198
3.13054 4.87909 10.1549
3.09601 4.91525 10.2944
3.48018 5.44021 10.9275
3.2513 5.08578 10.5335
3.52906 5.30269 10.6915
3.07484 4.96178 10.0326
3.08342 4.7137 10.2907
3.40813 5.38029 10.9137
3.47162 5.47863 11.6317
3.22193 5.50117 11.4803
3.36963 5.23511 10.8663
3.48593 5.46144 11.3225
3.11911 5.08641 10.4987
3.13641 4.87583 10.7704
3.32075 5.24273 11.0054
3.36924 5.44827 10.9437
3.09197 4.94532 10.4449
3.20894 5.3754 11.2006
2.98077 5.18944 11.1864
3.2448 4.88709 10.4248
3.07398 5.38448 11.7327
3.30684 5.33633 10.427
2.88193 4.81978 10.6594
3.09107 5.27626 12.1731
3.25098 5.30536 11.3999
3.25916 4.98448 10.5486
3.09112 5.17362 11.4176
3.20753 5.34008 11.2638
3.08676 5.25572 11.3628
3.23468 5.39597 11.6413
3.1153 4.80809 10.6178
3.18349 5.3277 11.4006
3.1623 4.95432 10.9057
2.91001 4.87285 10.4296
3.1358 5.24944 11.5775
3.10738 4.88155 10.292
2.90701 5.16072 11.2601
2.89899 4.98407 11.4665
3.09913 5.36907 11.4395
2.87166 5.2842 12.2886
3.13253 5.15368 11.7497
3.28655 5.35093 11.6048
3.05947 5.16186 11.3326
3.1167 5.26425 11.7232
3.01964 4.88448 10.6544
3.08809 5.41403 11.7341
2.94123 5.19121 12.1212
3.24792 5.21429 11.5686
2.93364 5.25324 11.6948
2.78669 4.74792 11.1059
3.01791 5.03855 11.0404
2.76936 4.90991 11.3462
2.88631 5.01859 11.5596
3.18895 5.48308 11.9439
2.96536 5.13306 11.4635
2.77864 5.27431 11.9887
2.80752 4.71827 11.5145
3.07322 5.19639 11.476
2.93518 5.22195 11.8294
2.82595 5.11968 12.3725
3.16066 5.49349 12.4149
3.13727 5.4436 11.7232
2.81339 5.08502 11.7664
3.0386 5.13414 11.6647
2.87533 5.4307 12.7127
2.97022 5.32183 12.8052
2.95444 4.96535 11.3132
2.81642 4.90997 11.6521
3.11799 5.56307 12.2999
2.85072 5.16077 12.7419
3.10432 5.66142 12.8685
2.9325 5.35032 12.5293
3.00964 5.91647 14.1982
2.9911 5.59067 12.9175
2.93318 5.27948 12.8579
2.95007 5.33269 13.0197
3.21948 5.19352 11.7369
2.94085 5.53489 13.3297
2.89569 5.16556 12.5273
3.13358 5.73653 13.6359
3.06776 5.20724 12.1433
2.8539 5.11231 12.0287
2.48307 4.9466 12.354
2.86138 5.52098 13.3233
2.9833 5.48867 13.1971
2.84176 5.25722 12.6883
2.95221 5.3703 13.1352
2.84918 5.21283 12.303
2.91799 5.66487 14.0218
3.10492 5.51898 13.5409
3.02264 5.38584 12.4387
2.81861 5.44986 13.8388
2.9161 5.33134 12.3161
2.85857 5.18625 12.6079
2.8317 5.46234 13.9789
2.94334 5.3942 12.9674
2.77589 5.19937 12.3138
2.69993 5.27388 14.3153
3.09087 5.9725 13.8056
2.82774 5.38038 13.2432
2.65464 5.13691 13.3454
2.86013 5.21072 12.5444
2.6225 5.24736 13.442
2.71323 5.32154 13.4243
2.87327 5.31847 13.4847
2.86513 5.65427 13.4948
2.68567 5.29532 13.1102
2.87506 5.55613 13.6183
2.67458 5.44403 13.9995
2.66652 5.18492 13.2605
2.70999 5.31948 13.5789
2.64926 5.32695 13.4297
2.82179 5.14924 13.0932
2.81643 5.68131 14.0498
2.73676 5.27012 13.9003
2.78399 5.45983 13.6836
2.87026 5.58321 13.6574
2.72922 5.39754 13.9627
2.80034 5.26374 13.628
2.85172 5.32031 13.5765
2.68924 5.36003 13.4554
2.7779 5.14729 14.0433
3.01187 5.6341 13.5923
2.76975 5.63137 14.6085
2.79064 5.49198 14.7552
2.93009 5.47183 13.5815
2.8772 6.02029 15.3253
2.75369 5.62137 15.0742
2.86459 5.89319 15.2815
2.94899 5.98626 15.3825
2.91546 5.88012 15.46
2.89698 6.00804 15.0817
2.81538 5.8955 15.7016
3.10454 6.43457 16.2781
2.94687 5.70786 13.9432
2.66996 5.33538 15.4014
2.99109 6.24285 16.216
2.97651 6.45543 16.1625
2.80661 5.91902 16.1388
2.7774 5.32975 13.7751
2.6674 5.65793 14.8553
2.66346 5.42533 14.4053
2.50496 5.53487 15.5978
2.77967 5.60723 15.1517
2.8805 5.77025 15.7962
2.92867 5.97077 15.1019
2.76696 5.60126 14.3231
2.66111 5.45007 14.2792
2.55845 5.59273 15.4391
2.68687 5.37152 14.2319
2.67755 5.44856 14.2627
2.62897 5.49607 14.816
2.66458 5.78861 15.3521
2.53084 5.23393 14.787
2.71489 5.44753 14.0505
2.38745 5.14617 13.924
2.44721 5.11683 14.235
2.61974 5.40855 14.7873
2.52762 5.40089 13.9705
2.392 5.30402 14.6174
2.60245 5.65214 15.8664
2.66295 5.46227 14.6287
2.56137 5.53638 14.9044
2.57441 5.27071 14.219
2.43016 5.68825 16.1447
2.50799 4.98768 13.4449
2.53641 5.30723 13.7722
2.45941 5.22841 14.7124
2.54138 5.42475 14.8756
2.4422 5.38966 15.102
2.48068 5.38934 14.7236
2.52767 5.33654 14.5655
2.62115 5.55702 15.2246
2.44349 5.15374 14.8621
2.4927 5.23203 13.7547
2.4089 5.83097 15.9535
2.60839 5.76685 15.9389
2.39701 5.04753 14.1135
2.32671 5.00709 14.4081
2.39276 5.38256 15.0149
2.53116 5.71981 15.9264
2.47855 5.33274 15.9688
2.45324 5.39261 14.9017
2.44716 5.50523 15.2432
2.52751 5.47863 15.3765
2.4049 4.97261 14.1675
2.43072 5.4657 16.0542
2.62843 5.67777 15.9089
2.50434 5.00894 13.8329
2.46286 5.70992 16.0753
2.48002 5.73323 15.8089
2.40531 5.06406 15.0519
2.52486 5.75426 15.9427
2.30413 5.22171 16.4943
2.75418 5.3682 15.0062
2.4899 5.61976 15.2281
2.39584 5.21634 15.2052
2.31721 5.15139 15.0957
2.41824 5.72479 16.6608
2.50456 5.44371 15.4973
2.71397 5.78055 15.4937
2.30308 5.53928 15.5736
2.21958 5.18147 15.6039
2.34706 5.17633 14.8956
2.29513 5.05434 14.1837
2.25976 5.24606 16.4772
2.41801 5.07575 14.8726
2.30218 5.58641 15.948
2.33397 5.29573 15.0443
2.25491 5.37263 15.7706
2.40398 5.2976 15.5357
2.36166 5.54926 16.8122
2.51471 5.51381 16.196
2.45821 5.37273 15.637
2.60509 5.64779 15.5909
2.25507 5.677 17.75
2.50375 5.56841 15.2659
2.14828 4.84028 14.9235
2.37604 5.11389 14.8805
2.28524 5.33654 15.5581
2.09409 5.21649 16.1919
2.46459 5.3999 14.9182
2.24856 5.66027 16.156
2.17861 4.94842 14.5985
2.27701 5.12989 16.451
2.49948 5.64514 16.8172
2.42848 5.67961 16.7997
2.38529 5.58583 17.0624
2.40895 5.38732 16.2957
2.57 6.08092 16.5809
2.2274 5.37334 16.7115
2.45921 5.73918 16.8916
2.46201 5.54768 17.0956
2.45885 5.64303 17.3154
2.38332 5.71315 16.6931
2.44099 5.18222 15.3611
2.31989 5.18818 15.9285
2.31597 5.48341 16.763
2.28216 5.24148 16.6716
2.46073 5.7545 17.0188
2.37325 5.54834 16.7997
2.37876 5.60506 17.2239
2.32269 5.80753 16.6416
2.22453 5.18338 16.7265
2.41283 5.45108 16.9314
2.46887 5.60503 16.4771
2.20179 5.19466 16.1436
2.20766 5.43035 17.0706
2.39152 5.90252 17.7572
2.3835 5.46649 17.0491
2.32831 5.66881 17.2519
2.47643 5.26969 15.4311
2.0377 4.95627 16.0057
2.256 5.49315 16.4471
2.14842 5.2972 16.2492
2.28173 5.42685 16.2401
2.25283 5.51386 17.5858
2.35178 5.63 17.4851
2.41154 5.40631 16.796
2.39986 5.41374 16.2222
2.29689 5.43969 16.4853
2.04903 5.28072 16.8752
2.2128 5.34272 16.9828
2.27314 5.89763 19.3956
2.51445 5.49553 16.5722
2.26498 5.23599 16.3007
2.23392 5.5944 17.5645
2.30052 5.39384 16.9332
2.24909 5.52824 16.349
2.11977 5.40851 16.2689
2.13947 5.41951 17.1596
2.25223 5.38412 17.9828
2.36944 5.54402 16.9945
2.19982 5.16777 17.1087
2.28072 5.44182 17.4727
2.28375 5.42156 16.0037
2.03561 5.00701 16.4935
2.26464 5.64128 16.6731
2.11386 5.09263 17.3113
2.31642 5.78176 18.5407
2.28963 5.6072 17.2175
2.15046 5.20059 17.1884
2.26332 5.55814 18.4586
2.41877 5.83109 17.1565
2.07057 5.01694 16.5882
2.21958 5.47998 16.9783
2.15842 5.3452 16.9771
2.19333 5.29936 17.5164
2.2635 5.7415 17.806
2.24836 5.69789 18.8992
2.23807 5.39907 17.5961
2.22543 5.4809 17.9279
2.14756 5.55366 18.2159
2.22044 5.44177 16.7162
2.16266 5.16774 16.1688
2.00898 4.82384 15.8828
2.03708 5.19414 17.4695
2.23652 5.71554 18.2755
2.14808 5.28072 16.6665
2.01742 4.86198 16.5269
2.19538 5.54615 17.4519
2.09058 5.34401 17.7959
2.20495 5.65504 17.4926
2.09009 5.82845 19.2061
2.14338 5.09022 16.4542
2.11527 5.62833 19.2193
2.17281 5.2957 16.2811
1.9614 5.47958 18.7096
2.07857 4.96041 17.5403
2.23006 5.68478 17.5683
2.15946 5.3683 16.9754
2.0344 5.42841 18.9869
2.25787 5.52339 17.3293
2.05249 5.27212 18.2218
2.13542 5.53544 17.094
2.10714 5.4179 18.4544
2.20953 5.76291 18.3686
2.19389 5.745 19.1175
2.12641 5.33407 17.7295
2.15175 5.57191 18.5985
2.12199 5.62463 18.7985
2.13418 5.38695 18.3647
2.13221 5.65027 18.5813
2.23321 5.75052 18.5291
2.08196 5.54771 18.3637
2.07199 5.63151 18.9553
2.08363 5.38912 17.7387
2.04409 5.37466 18.5086
2.18386 5.6871 18.4185
2.17999 5.55802 17.9923
2.00917 5.36998 18.2569
2.01837 5.49607 19.342
2.18412 5.68919 18.5388
2.26116 5.70223 18.3797
1.88853 5.0813 17.7838
2.06391 5.11452 16.6202
1.90373 5.31894 19.1424
2.1763 5.47152 17.2339
2.02871 5.66316 19.2025
2.06763 6.04504 21.1113
2.16336 5.35407 18.3952
2.16098 5.7909 19.3304
2.17436 5.44705 17.9631
2.08797 5.84494 19.8576
2.20645 6.10229 21.3713
2.22398 5.53098 18.6968
2.05037 5.76271 19.5478
2.01595 5.06332 18.5128
2.00771 5.32113 17.4408
2.03425 5.82228 18.304
1.95274 5.52476 18.546
1.97296 5.20671 17.4889
1.98695 5.56408 19.1711
1.94204 5.48987 19.3921
2.18135 5.44175 17.7626
1.92254 5.30519 19.9367
2.24715 6.12901 19.6152
1.9751 5.44268 18.9732
2.08564 5.28493 17.6868
1.92606 5.803 20.4156
2.07494 5.42818 19.5019
2.23378 5.78975 18.725
2.00797 5.34765 19.1508
2.07668 5.53236 18.7379
2.06109 5.75784 20.0619
2.08919 5.70739 19.81
2.09157 5.82629 19.5664
2.08733 5.90352 19.3778
1.97309 5.15044 19.1746
2.02113 5.07549 17.9029
2.00836 5.50103 18.1462
1.91019 4.97909 18.2326
2.05465 5.64237 18.6905
2.00313 5.52579 18.7347
1.89877 5.05413 18.9372
1.95658 5.25061 17.9404
2.0027 5.47493 19.2926
2.00629 5.35082 19.317
2.1713 5.96454 20.0785
2.02688 5.11591 18.4646
2.05558 5.35664 17.7298
1.94943 5.25133 19.5295
2.10469 5.83218 20.0911
2.19005 5.73461 19.719
2.01157 5.47136 19.1554
1.93583 5.73773 19.8771
2.1121 5.54712 18.7651
1.9802 5.27984 18.8822
1.97957 5.60097 18.95
2.03468 5.52991 20.032
2.08896 5.56431 18.984
1.96715 5.60117 20.3223
2.13135 5.48182 19.4474
1.98332 5.78167 21.6823
2.18802 5.49009 18.3568
1.92705 5.3978 19.9033
2.05048 5.6688 20.2999
2.0967 5.57809 19.5787
1.99899 5.4297 20.3454
2.14399 5.7859 19.7729
2.05776 5.61199 20.5604
2.16062 5.88657 20.4021
2.09252 5.86509 21.2452
2.07933 5.61566 19.9626
2.07126 5.53811 19.7061
2.03746 5.52947 19.7691
2.03891 5.7962 20.2516
2.07605 6.00778 20.5296
1.98106 5.64165 21.4788
2.1514 5.79938 20.411
2.00468 5.74744 21.6262
2.17912 5.5966 20.316
2.14772 6.01727 22.2982
2.17613 5.84782 21.5775
2.09894 6.34558 21.084
1.98859 5.89241 21.3218
2.19743 5.38308 21.1576
2.18988 5.8959 20.3081
2.09773 6.13985 22.6229
2.24372 6.5208 22.4177
2.15418 6.72644 25.0432
2.33138 6.40352 22.322
2.12411 6.17004 20.3642
1.97664 6.09422 23.8481
2.25336 6.24512 24.194
2.39942 6.21487 21.9128
2.1979 6.09751 22.2169
2.04758 5.48649 20.2665
1.97833 6.01786 21.6239
2.18184 6.598 22.2939
2.16131 6.56362 23.5337
2.20893 6.16109 22.0409
2.08407 5.81116 21.3897
2.04324 5.68426 20.7486
1.95342 5.65834 21.1713
2.0876 5.71862 21.0392
2.12422 5.84428 21.8068
2.10497 5.81132 20.9199
2.02531 6.12087 21.4867
2.06294 5.5767 20.622
1.87731 5.88327 22.036
2.00268 5.61464 19.5173
1.91624 5.58152 20.232
1.97983 5.57348 20.3083
1.9582 5.55832 21.0726
1.99541 5.70453 21.503
2.13136 5.95512 21.2508
1.915 5.23738 20.1512
1.87362 5.06577 18.7095
1.76147 5.25073 20.1736
2.00813 5.88208 21.3496
1.98776 5.93914 21.73
1.9603 6.11272 22.3345
2.06156 5.94539 21.0817
1.94435 5.49207 21.3427
2.00662 6.04653 21.7872
2.04891 5.81566 20.3339
1.8836 5.48877 19.8902
1.91025 5.72514 21.8811
1.91854 5.43208 20.6492
1.97164 5.86041 21.24
1.90595 5.64209 21.6927
1.99466 6.08836 22.9401
1.97493 5.98104 22.6003
1.99034 5.79755 21.3608
1.90764 6.10055 20.7243
1.89242 5.52229 20.4121
1.89033 5.44772 20.1045
1.87758 5.39169 20.6886
1.8582 5.69086 22.2038
1.94357 5.34693 20.0442
1.86943 5.66388 20.09
1.79664 5.25105 19.0558
1.74184 5.58218 21.5348
1.96784 5.43618 21.3909
1.85728 5.52822 21.4326
1.97521 5.19518 17.9635
1.72799 5.25792 19.8839
1.80971 5.61286 20.3521
1.89845 5.43791 21.5572
2.00275 6.04813 20.5374
1.84759 5.22176 21.4286
1.89874 5.67855 21.1255
1.88697 5.5745 20.9293
1.97224 5.62732 21.1346
1.87907 5.40396 19.9848
1.87556 5.47876 18.6858
1.68895 5.38245 21.1286
1.8812 5.35295 20.9083
1.88572 5.55621 21.9635
1.89446 5.42901 20.7423
1.87404 5.56689 21.4624
1.9132 5.42366 19.5757
1.86418 5.60626 21.9574
1.92971 5.60647 21.5865
1.86886 5.41012 21.3183
1.93235 5.99704 20.9026
1.89164 5.62844 21.2086
1.90587 5.7481 21.097
1.85175 5.3704 20.5638
1.87697 5.546 20.0656
1.80439 5.52156 21.949
1.93026 5.64318 20.7328
1.86783 5.47936 19.578
1.74339 5.09263 20.2372
1.82893 5.76626 21.1394
1.89244 5.44654 20.2032
1.84323 5.47657 20.0308
1.77151 5.44934 20.2916
1.7781 5.45182 21.666
1.88063 5.48477 22.5538
2.03367 5.88281 22.8453
1.97305 5.76784 22.5039
2.02042 5.84474 19.9985
1.773 5.34781 22.5585
1.93766 5.35208 20.7326
1.86551 5.53024 21.2398
1.84581 5.38429 19.7909
1.84123 5.47554 19.996
1.79262 5.7806 22.3984
1.9047 5.20627 21.8775
1.95109 5.76321 21.2281
1.84534 5.7621 20.9402
1.79487 5.38358 20.8379
1.84873 5.19055 20.9068
1.84912 5.77965 21.7956
1.86128 5.47095 19.9869
1.73521 5.31697 20.52
1.79002 5.4746 22.1821
1.87818 5.49133 22.079
1.97377 5.79645 22.3232
1.84118 5.79158 21.5856
1.75089 5.35343 20.6941
1.8644 5.86485 22.6195
2.05186 5.78061 20.6532
1.75035 5.52806 21.2351
1.87261 5.65643 21.3364
1.84413 5.25609 22.0968
1.94153 5.54669 22.4599
1.90988 5.6933 21.5068
1.84742 5.38586 19.9433
1.74524 5.40752 21.2574
1.75635 5.25075 21.3613
1.85394 5.58172 20.3796
1.72862 5.60545 23.1069
1.96209 5.91115 20.7236
1.90815 5.50112 21.8043
1.88082 5.40008 22.3343
1.92881 5.61532 21.1521
1.8522 5.48069 20.1322
1.82453 5.30289 20.6989
1.74607 5.504 21.8096
1.87847 5.85076 23.4475
2.02193 5.80569 21.8055
1.82943 5.37919 21.0143
1.86527 5.51779 20.5482
1.81056 5.63988 23.1609
1.96179 5.77194 21.1534
1.84743 5.64073 23.1941
1.89079 5.50218 20.0694
1.88452 5.84353 22.5042
1.81837 5.23552 19.9574
1.69715 5.51861 20.9937
1.82362 5.4688 21.7779
1.84215 5.39603 21.7647
1.90892 5.7585 22.1811
1.88246 5.496 20.3069
1.79166 5.76442 23.4356
1.83604 5.56703 21.5648
1.79348 5.27887 22.4582
1.92884 5.53023 20.9545
1.78546 5.81061 25.2301
2.06107 6.6649 23.6189
1.95964 5.41228 22.0502
1.83288 5.74101 22.2256
1.83053 5.67546 21.6415
1.89365 5.82503 21.747
1.82488 5.49118 23.0758
2.00392 5.64048 21.5388
1.80743 5.55061 21.6442
1.73822 5.21064 21.6474
1.90911 5.72079 22.4247
1.92825 5.41004 20.6883
1.79266 5.26021 20.555
1.76055 5.84466 22.4616
1.85197 5.3491 21.1925
1.78675 5.764 22.6896
1.90426 5.90381 23.835
1.948 6.02878 22.5593
1.83144 5.72818 22.8656
1.88534 5.63669 21.6911
1.8224 5.99567 21.8609
1.74735 5.35922 22.0741
1.808 5.18824 21.504
1.81069 6.02934 21.9103
1.86952 5.49922 22.7027
1.90042 5.84506 22.3284
1.8685 5.45925 21.7881
1.85941 5.7718 22.124
1.84445 5.92611 23.4583
1.95649 5.83469 22.6464
1.81203 5.72664 22.769
1.83 5.85317 22.6062
1.81523 5.86914 22.6919
1.81785 5.59878 23.1232
1.86779 5.93059 22.8878
1.8886 5.34162 20.8305
1.80019 5.70587 22.3042
1.7584 5.42066 22.2992
1.83531 5.75672 21.3027
1.74555 4.84928 19.6052
1.6766 5.4599 22.9555
1.84832 5.43249 22.2934
1.79688 5.34492 22.3631
1.84579 5.78152 22.0374
1.73141 5.33883 21.7424
1.77683 6.05925 23.1558
1.89257 5.5905 21.3799
1.72792 5.76103 21.64
1.76957 5.19122 21.9719
1.82746 5.73217 23.8139
1.91896 5.56429 21.9339
1.7961 5.81836 24.1395
1.97104 5.89293 21.8739
1.82809 5.47673 22.744
1.86684 5.72168 21.3025
1.82834 5.3947 21.0071
1.81725 5.84098 23.6372
1.92974 5.93227 23.8538
1.88097 5.52419 21.4724
1.76757 5.87656 22.5469
1.84703 5.62022 21.9432
1.82456 5.24231 20.9751
1.74629 5.69084 22.9922
1.84747 5.80821 21.4364
1.64443 5.46404 23.1427
1.83602 5.83362 22.8158
1.88659 5.68299 21.8031
1.75604 5.73024 23.384
1.88695 5.5424 22.9008
1.86385 5.56112 21.6806
1.70085 5.6306 23.3617
1.82678 6.05064 23.7517
1.90983 5.70763 21.2992
1.75913 5.33678 22.4163
1.81477 5.68812 21.3387
1.68376 5.43483 22.7266
1.83582 5.67658 20.8888
1.67338 5.44556 21.1977
1.6667 5.71086 23.6056
1.93124 5.57076 21.6125
1.7878 5.65808 22.9686
1.83215 5.55155 21.417
1.65256 5.49866 23.1882
1.80455 6.04275 24.1234
1.90246 5.87539 22.7165
1.81402 5.70682 21.2244
1.79188 5.27797 23.3536
1.80651 5.7964 22.4309
1.76169 5.8394 22.2492
1.77297 5.91745 22.3947
1.75955 5.9873 24.4444
1.90288 5.60465 24.2211
1.83586 6.07522 23.4805
1.91592 5.84374 23.6155
1.92047 5.72028 23.8779
1.91158 5.36312 21.4894
1.74325 6.12125 22.7493
1.77797 5.67045 22.712
1.8108 5.74615 22.1511
1.75878 5.73109 25.4183
1.98746 6.27537 24.7105
1.91096 5.94054 23.6176
1.90198 5.70308 22.2542
1.80022 5.6156 21.5714
1.75352 5.5321 23.7753
1.84625 5.68996 21.4281
1.69176 5.73129 23.1324
1.87601 5.70267 22.2023
1.90763 5.54593 23.9803
1.95209 5.69585 22.2092
1.72224 6.04748 23.3366
1.92526 6.06607 23.3699
1.83127 5.56422 22.412
1.81875 5.59931 20.8684
1.60754 5.35915 22.1005
1.7501 5.91232 25.3808
2.03472 5.8748 22.9391
1.87558 5.84618 23.7204
1.86944 5.98294 22.7068
1.77927 5.60236 24.1422
1.93088 5.98194 23.7846
1.93145 5.77043 21.8075
1.74891 5.77893 23.9519
1.92483 5.66047 23.2481
1.88485 5.85646 24.0661
1.92938 6.02411 21.8323
1.769 5.50772 23.7908
1.91799 5.7665 22.3274
1.86552 5.93887 24.3361
1.95381 5.54588 21.9595
1.81317 5.80427 25.2541
1.89666 6.56318 25.1332
2.05574 6.33396 23.4267
1.79777 5.74733 25.2121
2.03469 6.03374 22.543
1.71877 5.39442 25.04
2.05378 6.46314 24.3522
1.95996 6.05688 25.2134
2.04171 6.45968 25.9726
2.06499 6.57247 24.2991
1.996 0 0