# pn-170911/RbIIA-38-USN3-1280-1959.psd
# Power spectrum* (dif=0,1,2) (really just |FT|^2)
# NOTE: only the first half! (symmetric)
# weeks: 1280-1959
# 1 clock-days, 17 excluded
# PSD: 1441
757.114 0.336744 0.000612633
60038 0.200962 0.000125523
836728 16.8199 0.000799728
354097 16.2857 0.00206942
66592.3 4.60422 0.000297444
36535.7 3.76625 0.000355227
37502.8 7.02964 0.00491443
22661.8 5.77287 0.00513284
18744.3 6.13477 0.00887728
2069.76 0.636662 0.00251156
5774.24 2.62508 0.0014696
341.045 0.139379 0.00285265
827.815 0.660692 0.00604839
16846.3 13.3052 0.00797011
3611.07 3.4477 0.00845715
1133.38 1.1582 0.004373
1068.09 1.35191 0.000109157
2466.99 3.61248 0.00118868
1367.57 1.96768 0.0067666
3048.34 4.79485 0.0122754
333.029 0.777826 0.000507183
2367.12 5.65748 0.0103685
1023.07 2.65527 0.00556891
1220.91 2.83097 0.00870514
627.733 2.31112 0.00938799
2.97496 0.0866434 0.0019145
1195.36 3.17189 0.0114866
728.426 2.75404 0.00833926
908.627 4.08183 0.017764
307.459 0.947389 0.000649792
752.091 2.52374 0.00210586
321.222 0.977025 0.00460484
1361.68 6.42248 0.0178478
678.964 2.81575 0.00794968
891.357 4.64328 0.0343963
132.295 0.826412 0.00651403
988.361 6.5566 0.0651409
1052.78 7.57981 0.0709701
403.901 2.33215 0.00646148
23.5717 0.124662 0.000322911
396.501 3.32352 0.0319151
191.205 1.60828 0.0195549
39.2124 0.509073 0.00545633
7.59522 0.0305926 6.32604e-05
223.787 2.61032 0.0247561
274.167 3.1316 0.0294835
309.94 2.76681 0.021679
364.936 2.75436 0.0254372
463.934 4.41867 0.034366
0.674122 0.121264 0.00366231
230.446 1.77553 0.0146277
130.746 1.08474 0.00377766
244.208 2.18592 0.021462
153.068 2.05987 0.0139723
260.645 3.9163 0.0891672
162.178 1.89842 0.0421291
262.345 3.66575 0.032996
58.6596 0.589513 0.0149294
124.312 2.775 0.0714623
481.196 8.33732 0.177873
318.905 7.13454 0.180419
196.255 3.14003 0.0593024
18.7192 0.548917 0.0230377
132.561 1.56359 0.0135007
228.036 3.37029 0.0465186
116.747 2.22746 0.0420777
68.8822 1.4435 0.0316091
151.761 4.38659 0.103483
91.7357 1.56605 0.0364992
31.261 1.35233 0.0321545
49.1646 1.59009 0.0513694
152.052 2.22875 0.0446557
56.0956 0.698755 0.0176062
4.97218 0.0130707 0.00124067
160.879 5.61803 0.150672
272.218 9.38753 0.305725
59.7487 3.07274 0.104046
154.66 6.33606 0.255872
118.767 2.7471 0.119767
157.243 4.71688 0.104543
11.5879 1.04165 0.068268
27.3842 0.70206 0.0160964
50.9073 0.967781 0.0381993
17.8853 0.225239 0.012908
22.1027 0.237614 0.00149521
169.313 5.97952 0.20259
166.105 4.88739 0.15684
42.8122 1.00955 0.0288197
77.4572 4.15705 0.185297
167.196 4.67583 0.156239
4.20617 0.0617821 0.00422221
25.706 1.83965 0.0782922
34.8635 1.36475 0.0742166
152.64 8.46169 0.343873
37.0579 3.07621 0.140899
68.1694 1.46357 0.0716161
117.964 4.75291 0.152193
182.237 11.5865 0.550066
3.16791 0.567348 0.0388208
46.1094 0.673911 0.0212526
11.8198 0.301855 0.00781698
182.805 5.93941 0.226608
74.9197 2.40241 0.113706
22.8891 1.66272 0.06781
0.77159 0.0837556 0.0201152
15.8351 0.93051 0.0390431
15.8431 0.637676 0.0584974
67.8762 2.8032 0.164212
48.5418 2.9693 0.228619
10.9203 0.313064 0.0164213
85.4133 3.01529 0.115402
39.2373 1.86209 0.0873501
10.3098 1.63514 0.129079
25.8027 1.14657 0.0833795
54.8299 1.84784 0.108395
193.843 8.87724 0.543319
6.8982 1.34422 0.089236
29.4479 1.69729 0.156884
10.9209 0.854807 0.0425908
4.79093 0.810477 0.0929204
82.6503 3.11739 0.22393
37.5436 2.4048 0.25625
9.04072 1.21143 0.0636119
25.9788 3.92469 0.358025
267.376 22.9548 1.59607
46.2844 5.04462 0.502056
38.401 1.68584 0.0783424
34.7614 1.26694 0.0683531
53.0201 3.93035 0.326423
62.1027 5.49916 0.517502
43.6797 5.61887 0.519539
50.7584 6.75015 0.648328
28.6123 2.91333 0.275345
5.26973 0.359863 0.0423687
45.5219 4.38608 0.415082
49.1501 6.43001 0.637612
99.6418 6.04073 0.484918
31.4346 2.36903 0.194227
51.1837 6.69133 0.632786
4.92334 1.36888 0.198281
53.9048 2.29669 0.162867
2.01342 1.07629 0.104436
9.21883 0.0543512 0.0112078
56.8609 3.5223 0.418456
65.9651 10.7015 1.09169
13.7354 0.249191 0.00471944
36.4285 6.84792 0.883026
15.8008 0.0811057 0.00845981
30.3148 1.96087 0.284119
24.1825 0.656645 0.0493312
42.1557 4.70234 0.655917
14.5778 2.01654 0.385715
9.5471 3.03114 0.46785
15.7822 0.206707 0.00103022
4.659 0.366294 0.119956
10.2839 0.0535273 0.0309084
112.175 7.85211 0.668507
66.302 5.16348 0.535109
8.98097 0.384386 0.0488585
2.0798 0.827594 0.101236
31.8519 3.63757 0.447795
51.965 6.61121 1.05192
79.5458 11.1309 1.1777
6.52805 0.0643101 0.0232704
3.1792 0.109958 0.00545435
37.6091 9.41901 1.30538
54.5546 2.88247 0.2463
6.87989 0.0126213 0.00176985
3.44213 0.287621 0.0347108
24.2327 3.46373 0.580755
6.80141 0.107306 0.0506006
23.5819 4.73703 0.932197
34.5002 1.59141 0.114824
34.5375 4.72676 0.900075
6.9428 2.81909 0.50086
8.0837 0.0727627 0.0104188
11.947 2.38951 0.546311
4.41112 1.02847 0.221821
13.6908 5.22747 1.17891
126.009 14.6604 2.02776
87.2997 7.51366 0.860754
111.813 12.8833 1.92487
4.2762 0.0619935 0.0104601
41.9969 8.27823 1.38046
20.1096 7.68433 1.47499
3.36314 2.45202 0.657011
0.569866 1.06082 0.388351
24.1808 2.17427 0.377953
74.3927 8.94079 1.4023
54.018 5.38308 0.956747
9.05128 1.29981 0.372532
14.1242 1.18893 0.345
0.637576 1.02904 0.338754
7.51195 1.64415 0.302865
20.6426 0.658422 0.0567064
43.6149 7.56892 1.67607
17.1396 2.75932 0.338976
28.3032 10.9001 2.42071
13.2924 0.822257 0.276021
2.95272 1.2684 0.406375
2.44244 0.790871 0.473252
172.926 23.0432 3.75906
6.58948 3.05428 0.831045
29.1905 2.0057 0.221302
20.8483 3.16074 0.661453
9.29274 0.556005 0.127035
26.6967 5.65695 1.40619
16.4767 0.930584 0.233427
12.6628 2.41346 0.307249
13.9857 7.14369 1.53212
4.65339 0.583232 0.138306
6.73004 6.03891 1.55854
5.17312 0.68154 0.314518
21.8462 2.10476 0.445969
60.3175 6.72793 1.34923
7.17313 5.52351 1.44365
39.0466 3.05224 0.534746
6.57328 0.105255 0.0341726
18.0363 5.73844 1.28359
49.7263 21.2363 5.78798
7.75189 0.312792 0.465147
73.6487 8.12028 1.31714
8.38178 0.343117 0.100771
1.90807 2.02236 0.741477
20.1821 5.49046 1.28675
23.5889 1.66523 0.192931
17.2583 2.57362 0.604191
9.95114 1.01831 0.385179
50.2775 10.1819 2.26895
18.0291 8.8576 2.22573
5.95254 0.927066 0.199936
0.0779514 1.31356 0.366223
12.139 7.38703 2.19362
17.9645 2.77011 0.940859
15.3138 0.477777 0.0390454
2.95201 1.08056 0.576345
39.0949 4.62876 0.841248
2.363 0.697022 0.301748
12.5272 0.704189 0.06934
29.7007 3.24931 0.83695
3.93445 2.57493 0.796016
3.36515 0.157571 0.193843
13.4845 1.75537 0.253384
7.9802 0.695622 0.143611
3.07879 2.74119 0.911152
2.63077 0.480398 0.181556
5.00411 0.0546499 0.0123477
4.43189 1.02534 0.323386
6.66662 0.402338 0.15027
10.3808 0.775509 0.141174
1.93758 0.124339 0.088896
25.8401 3.5597 1.02171
0.445608 0.541572 0.102864
13.4175 6.6504 2.0245
1.29824 3.93862 1.79304
21.6492 1.25248 0.113129
15.9434 1.05352 0.30684
15.9527 1.32004 0.453955
53.1377 18.3618 5.18668
11.6136 0.363176 0.0536768
16.2732 4.93725 1.95653
37.117 5.28872 1.49946
1.52234 0.863255 0.126491
36.3722 12.3413 3.61529
6.89971 1.64123 0.528493
4.88205 0.50791 0.381216
18.8418 2.53041 0.531521
3.41014 0.584697 0.175184
7.70966 1.3315 0.555858
2.13804 2.0976 0.585212
3.26596 5.48108 2.3772
10.1018 0.515541 0.132029
6.73638 1.54667 0.666123
12.571 2.40937 0.999981
6.18372 0.0320423 0.0152161
11.368 1.21 0.500606
9.44999 1.9672 0.533824
0.816091 2.30977 1.09979
26.2017 5.53229 1.87608
2.19927 0.152426 0.231085
21.758 7.29638 2.1489
6.91499 1.11465 0.557673
2.16348 3.72651 0.990955
4.51113 6.01008 2.41921
11.6926 1.99369 0.740863
6.6082 1.69977 0.445488
1.09404 2.88681 0.801444
5.26835 8.56292 3.73001
16.0264 0.833579 0.0827026
10.7998 1.28186 0.271692
9.81155 2.21416 0.738622
24.427 4.5147 1.77017
8.12382 1.57581 1.203
6.73181 5.61923 1.64144
1.08139 0.247436 0.109339
8.83646 5.98919 2.32222
8.06148 2.63025 1.57845
34.0292 8.829 3.02855
1.68539 0.235092 0.165802
18.7213 8.30097 4.61917
17.4911 7.99393 2.71856
5.68786 0.969127 0.670331
25.3695 6.7388 3.48578
44.1071 13.2712 4.46519
13.3498 1.01448 0.324771
7.38364 0.400461 0.23038
0.381476 1.01886 0.349275
3.93508 0.279843 0.105379
0.721049 1.91788 1.04416
9.93014 1.60718 0.594739
47.2927 16.3248 8.76212
13.9869 3.34143 0.412675
5.98543 4.75028 1.55891
13.4951 4.08203 1.44078
15.391 2.12002 0.866525
10.1487 3.14419 1.33535
0.0158618 1.12058 0.359484
0.126523 1.13522 0.614919
3.94505 3.27262 2.12474
5.55634 0.178908 0.539561
21.7909 3.08556 0.901441
51.7383 17.3842 7.82293
5.64168 9.50638 6.01722
14.6337 0.883196 0.0474294
5.86377 0.133305 0.196435
7.24832 4.25539 3.31866
13.9245 1.0302 0.270466
21.1474 4.64057 2.34314
19.9296 2.57664 0.496226
16.2016 2.83743 1.09381
3.54122 5.60307 2.61779
0.67539 2.94157 2.17606
15.3463 4.92975 2.35856
18.2742 4.14536 2.09433
1.22593 5.72404 3.21812
5.60056 3.18295 2.44612
13.5097 1.40856 0.46447
0.860719 4.53158 2.56342
7.76927 4.37073 2.58762
2.48862 0.293388 0.447781
0.443525 1.67794 1.63252
10.6964 0.65877 0.184331
2.40616 1.41966 1.5763
8.41275 0.500991 0.503548
37.7467 8.71343 3.48734
25.864 7.08229 2.87548
15.6722 3.39194 1.92432
2.07483 1.2381 0.873215
20.8478 4.51239 2.54446
1.8104 0.00578346 0.114949
2.12371 5.77598 3.0721
4.46087 0.0329323 0.0418524
2.497 3.22928 1.99225
0.172463 5.79809 4.82207
12.1308 1.44345 1.42792
15.571 1.44347 0.338895
15.0029 3.26661 1.93119
1.01822 0.629676 0.535505
0.599253 3.84979 3.50138
31.008 7.10957 2.64416
8.00549 2.83478 2.29541
9.57193 2.76666 1.05871
6.25797 2.47492 2.15929
4.40181 5.1121 3.05611
25.3274 6.55818 3.60563
1.83012 3.52304 1.83762
6.84114 0.664043 0.440111
9.61871 1.29511 0.905702
2.35202 0.365873 1.1995
30.7001 11.5642 4.94578
11.3555 1.6173 0.734778
18.2969 4.81218 3.07933
5.1583 0.62543 0.840304
2.08522 2.26646 1.71817
1.57302 0.357255 0.549741
0.663159 2.08515 1.61615
4.30917 3.08648 2.50312
17.5191 3.26084 1.69772
10.5446 3.23754 2.36953
21.5858 4.56035 2.24325
3.5488 1.20103 1.14665
3.11222 5.2507 3.3773
19.2788 7.08279 4.86324
3.11989 1.17702 0.416322
2.21933 1.26999 0.96317
3.41866 0.284504 0.368852
17.4341 5.28753 4.05371
5.30532 3.79562 2.19192
2.67111 6.29373 3.99164
11.2491 1.97699 1.3855
0.332117 0.913451 1.16204
5.40251 4.50209 2.13659
17.2282 10.1492 6.22392
2.11449 0.958199 1.69623
9.85999 0.487402 0.444126
28.2529 6.74795 3.10842
48.3109 19.402 11.9983
8.66984 3.21612 3.77373
1.4037 2.8462 2.22083
1.4547 5.3703 6.93685
22.8129 3.71252 0.94161
6.01443 0.238454 0.899503
23.3446 9.24514 5.46478
4.90465 6.16397 5.65643
29.8797 7.82466 4.31166
3.31254 0.57895 1.34572
9.59623 1.77022 0.441924
7.47325 2.3591 1.38443
2.36563 2.51923 2.62087
12.1797 16.7405 12.06
5.64957 3.73127 6.13108
20.4624 7.76946 4.78715
34.7462 12.169 7.22515
1.66994 3.20398 3.02336
19.3001 3.80421 1.37443
24.3445 7.69951 4.2734
15.5125 5.6598 4.54271
13.2636 6.70221 7.82668
5.97758 13.7786 16.7518
24.5736 7.41805 1.48652
15.9253 3.45568 1.14199
15.072 4.70466 5.00937
8.69071 1.68269 0.218555
7.53473 2.02836 0.703083
3.28509 0.497439 0.633551
9.65149 2.82799 3.17733
15.0509 2.7256 3.29394
32.5729 10.5462 5.2199
12.3009 4.18516 3.4229
0.355538 0.826711 0.466861
2.51256 0.919576 1.89407
18.2349 4.98969 4.73699
36.4025 24.8961 18.7349
0.748673 2.42581 2.43289
18.9641 9.62722 7.48316
1.46773 2.15647 1.30285
3.35992 0.18268 0.288475
5.40313 1.16219 1.17192
19.5577 8.59342 8.8834
9.98706 17.4306 16.7064
14.7512 6.54127 2.5593
25.2399 15.2264 11.3886
1.81831 0.462518 1.13294
13.2811 5.04321 4.57301
4.36142 2.95779 1.83934
11.6273 2.35892 2.02056
1.4083 0.183048 0.12314
0.837442 5.35887 4.40381
1.77461 1.64345 3.21729
10.3653 0.310196 0.19043
20.6009 5.90355 3.91242
2.98453 0.0623798 0.207805
1.43819 0.463809 0.758819
5.27493 9.77744 8.08178
3.09274 0.235946 0.671921
2.33606 2.23355 3.06801
5.3621 2.04603 1.95429
6.0956 0.346697 0.192939
3.7602 0.389798 0.447054
2.67436 4.29778 4.53442
4.28921 5.32723 3.93773
1.43908 1.69316 2.23271
7.53251 0.553279 0.372066
15.3696 10.2013 11.345
3.83037 11.512 8.78955
5.60985 0.0898425 0.127128
11.4715 4.84054 5.54086
2.39377 4.10871 3.55774
10.9677 2.22085 1.59445
3.46205 0.22217 1.23719
10.0616 3.02542 1.66146
7.89754 5.60405 3.04652
8.40247 1.57311 1.25743
10.3092 3.72137 1.71816
22.4289 15.6392 16.9106
1.15678 0.392013 2.94261
0.773465 4.05213 2.11062
2.30043 0.597767 0.760494
10.1798 4.25414 6.88547
12.7217 3.89789 0.885085
6.80761 2.56041 2.20895
21.0554 11.3842 11.0624
7.57293 1.51683 1.22495
0.474152 1.84732 3.64722
16.7937 3.72935 1.46684
11.6571 6.81764 8.65861
1.49077 1.66167 5.73737
22.0268 4.42688 0.684469
23.7695 10.4105 8.63687
5.41125 1.54863 1.80908
1.89994 2.50359 2.17248
0.933347 1.38945 2.24528
5.59218 0.72724 0.23685
4.02256 3.92188 5.34674
14.8825 4.11079 3.80666
0.264221 4.82922 5.17717
11.3441 1.92605 1.36669
8.26251 5.48432 8.29138
0.641504 2.18169 0.691373
2.04476 0.555494 0.986382
2.71721 10.7545 7.77124
0.82602 3.47309 5.28611
5.79243 5.82951 6.3596
6.22265 0.1153 1.28026
24.1776 10.3732 6.77685
12.1074 9.3612 15.4496
6.18274 9.13374 8.96327
34.8978 17.9365 12.4543
13.8012 9.34599 11.4966
5.4979 3.3057 6.16593
2.0452 0.581098 3.949
9.64133 18.6555 18.1495
14.4812 6.74749 7.14558
12.8787 3.74153 4.46519
10.5384 8.26132 7.20177
0.859687 2.33308 4.9171
11.5759 10.8187 9.79723
4.15193 1.08331 3.40241
5.85077 3.53886 3.35008
6.27676 0.269709 0.329798
2.27773 4.40881 6.36152
7.4017 4.02009 4.91803
6.74154 0.649363 2.16297
12.4559 6.82911 6.20891
0.0608551 4.18718 4.22557
1.62943 2.87852 6.07192
16.8256 6.10126 5.22972
0.754378 0.510707 1.00865
5.21051 2.93064 2.68328
5.08165 1.1833 2.15813
0.505372 2.44468 2.09607
3.01055 1.06773 2.65137
5.64774 0.101743 2.25593
20.2165 6.77016 2.90843
15.1851 6.51119 4.96784
15.4934 9.94572 12.9041
2.76111 0.790474 0.292975
7.86195 2.39298 1.97718
8.6894 3.63125 5.70918
2.38231 4.68041 9.60681
11.7062 2.90065 0.891299
10.7417 4.81587 7.64437
1.13495 0.52624 1.50499
10.7734 6.51845 14.8876
13.684 4.45893 4.37836
6.95426 10.2129 9.851
20.8381 7.69023 3.3665
18.5247 15.2875 19.2293
0.246193 0.11363 0.255132
1.13243 0.332863 0.311283
5.48999 2.42304 1.05473
5.369 4.94825 6.64932
6.93407 1.07168 0.93703
9.83507 7.05614 9.64192
5.32455 1.55421 1.40566
2.32764 0.0903053 0.167062
3.6922 0.808665 1.41117
0.864017 3.26355 6.68485
8.56523 0.823743 0.758969
5.86793 0.715643 0.472951
0.325229 3.88649 8.59829
13.303 2.42232 1.57867
17.0514 11.713 16.9857
5.66082 0.083149 1.14691
8.42074 0.666441 0.048942
6.6085 0.128924 0.553025
12.4464 4.43561 6.69148
16.1175 11.0923 8.10495
13.1336 10.1768 14.1683
3.8743 2.87929 12.2192
9.12135 21.4614 23.297
6.87448 0.100102 0.102529
3.1302 3.75589 8.23904
4.08925 4.64629 7.87613
12.1473 2.98811 1.394
4.82598 1.04043 1.75129
1.76504 0.518286 4.41043
7.53478 28.9412 38.455
12.4683 1.15889 0.46444
5.34008 1.80541 2.04623
7.27629 2.56683 4.52106
12.2497 5.59441 8.70489
2.4173 1.93856 0.342248
6.55613 8.03608 9.23581
9.79797 6.59103 12.1111
1.58726 0.34135 1.81218
0.881811 11.4309 36.7627
37.4695 34.6466 30.4747
14.6896 7.19772 11.0598
5.06379 3.9981 3.93427
3.69487 0.0280321 0.257682
2.36071 1.82607 2.12768
8.97175 8.57125 15.0507
6.20546 1.6524 4.40641
0.109994 1.16506 5.17739
3.57462 9.24656 4.82892
0.122755 6.30388 7.35507
1.41068 1.88461 3.74915
1.07937 1.18 2.58035
3.93868 0.423742 0.779774
2.04454 1.08876 0.333183
10.3711 11.8732 16.5536
5.56351 3.73608 10.5275
2.23967 1.70021 4.04178
4.88711 7.66879 7.67563
1.05999 0.297421 0.541234
10.84 14.3333 23.2118
1.44633 2.3623 5.01022
3.47812 0.173035 2.84608
19.1507 18.428 13.9631
14.9182 12.6521 20.0078
2.45282 1.97691 12.045
8.2783 5.67034 1.35819
11.6527 7.9903 14.4217
4.34379 3.69323 1.27574
10.2394 3.71328 3.25024
15.0426 12.5278 15.5991
1.75136 0.761581 2.64678
14.31 14.0621 29.0022
3.10196 0.78415 1.36199
13.053 10.098 11.4076
1.39385 3.20656 11.235
10.5148 7.5603 4.84351
10.0794 5.59562 7.4531
5.94098 8.69503 18.9294
6.83948 1.70434 0.118048
11.7149 11.2564 14.4177
0.196771 2.40159 5.30557
8.02916 4.55585 6.70985
0.50372 5.86567 13.4546
15.0599 3.84727 1.43127
13.1797 11.3658 20.0694
8.40273 9.35973 13.1051
0.547149 4.04201 6.59516
8.87024 1.78435 1.4399
3.81333 3.96722 5.23479
1.62835 4.42999 13.2356
6.02005 3.24863 4.10075
3.66205 2.19759 6.17738
5.76768 0.226575 2.0815
5.20645 1.21664 1.63044
3.32041 2.86204 12.9919
17.1686 8.13026 6.64808
3.9108 3.40113 3.90299
0.239895 2.16716 2.88996
1.86604 0.378292 2.44208
4.66355 4.06191 3.62974
0.524771 2.34356 4.69709
5.04982 1.25913 1.29387
1.14773 0.353524 0.531596
0.445116 2.19797 6.20552
9.61009 9.40321 8.02512
2.44193 6.46856 12.8144
4.69774 0.721688 3.46553
11.9273 9.56852 21.8029
0.92473 3.62091 3.66642
6.11136 4.97831 9.37911
0.497964 1.53184 2.73846
10.5106 9.25641 19.2942
1.24687 0.743825 0.619221
0.0653533 7.26331 13.4093
8.87508 1.82226 0.773453
2.10997 0.0822151 0.541084
6.11945 12.2564 39.0624
17.5714 11.6962 5.55143
8.85944 7.27409 14.018
10.845 9.89829 13.3498
3.84919 1.0209 1.32511
4.0139 0.740019 3.14569
12.4527 6.8668 6.38354
1.7719 1.56495 7.4643
18.8526 15.2984 19.5883
1.88534 1.84977 8.45991
0.585781 0.530367 2.33995
2.59962 5.57881 8.10907
5.43809 0.581042 0.956296
5.96984 1.9002 6.29652
5.86108 4.44842 3.02942
11.7353 13.0442 30.3651
1.65329 3.7292 0.992052
0.652338 4.87354 11.1085
7.08124 1.15049 7.4041
15.4798 11.819 11.7748
2.74561 1.30961 3.65087
1.9467 0.331109 4.06971
6.32427 13.1105 17.972
3.53805 0.285676 0.383114
3.96074 2.89197 11.7919
3.07583 17.9033 38.2246
18.0669 11.506 10.5191
3.29018 1.49011 2.51471
7.64502 5.06239 8.78609
1.24383 0.474919 3.65915
2.20966 0.392394 0.234679
2.07038 0.635165 4.818
2.32821 2.28754 1.32344
2.57644 1.14479 2.52801
5.15561 1.00799 2.09015
5.42657 0.374965 0.823711
10.0263 4.86868 5.70669
2.34912 1.37399 2.70142
7.75057 2.46718 1.87478
5.39241 3.43186 8.20931
3.93185 0.393395 0.0102002
7.58956 5.00034 10.619
2.37079 0.761037 6.39929
0.365635 4.15459 5.27545
5.42694 7.28614 18.0138
6.93477 8.75366 12.4715
3.14244 0.69244 1.61045
1.9989 3.7817 11.8955
6.72178 3.32631 9.01385
5.20608 0.473055 1.57971
7.58126 5.42535 3.32588
1.5745 5.54249 9.3629
1.0729 2.48782 5.18353
0.342184 11.2779 45.4053
18.9095 6.59572 0.87265
6.88967 6.43519 12.1278
6.16563 1.49751 1.40837
0.521501 3.42668 12.9393
13.9538 8.07465 8.69448
3.17608 5.64481 24.9289
4.75809 5.89399 3.01048
1.26941 0.239427 0.896937
1.02581 0.116725 2.13332
0.0814006 4.06178 1.88514
1.45009 2.90689 3.94973
0.142792 4.80066 9.72978
2.96882 0.416462 0.223786
1.92544 0.132327 0.775853
0.0818269 6.11159 13.0638
8.32457 6.38322 20.8373
6.39798 12.7416 19.5019
1.59493 3.30732 4.59369
2.48959 1.21386 4.15525
5.30943 1.17934 0.684593
3.55755 1.80678 4.19953
1.24778 2.06327 18.7455
22.2189 25.5244 38.2893
0.0135868 1.84849 1.2631
0.0792528 6.35086 18.3908
7.7147 4.21622 19.5168
18.7699 13.8521 14.2557
6.70897 11.6943 25.3055
8.96095 4.06098 1.90946
9.08186 12.9009 36.2276
0.0943699 1.10947 0.173248
0.900547 0.413585 2.23696
0.468442 8.37091 23.097
5.14907 9.16185 11.3047
4.18793 1.34825 5.33283
10.2455 7.95476 14.1663
0.129565 3.82736 8.50638
3.45 1.33815 3.07851
3.06791 9.32298 24.5566
5.11737 2.98666 1.87023
0.214754 2.68196 3.11104
0.283647 6.65439 23.5447
7.16655 0.0870422 4.53985
9.79357 4.61035 2.0852
4.43233 3.07865 7.5792
1.85666 0.661092 0.590245
2.85411 2.08062 12.819
3.66728 12.5357 26.8433
2.88652 6.26702 7.21077
5.10376 1.75978 4.00836
1.3553 1.7902 14.1254
2.68708 20.9482 35.9484
9.84637 8.83891 18.0233
1.25729 8.92985 16.561
5.27561 1.42759 1.34267
2.35327 4.64846 17.9553
8.50112 2.70583 1.40123
2.50111 0.381609 1.14735
3.5252 1.10711 5.89284
3.89642 2.70422 5.45138
0.194979 7.24614 14.308
5.37378 0.458266 1.74982
4.86932 6.67602 13.2503
3.2281 0.249218 1.80843
0.882914 6.06647 19.8852
8.91912 5.1117 4.55547
0.36144 5.84398 10.6812
1.3131 6.71298 35.0991
11.0688 1.43315 6.59709
10.2114 6.84266 3.19108
2.3243 8.18635 38.9272
18.8117 10.836 4.66605
5.44225 3.47741 7.11464
3.23238 8.48412 10.3145
7.76653 9.04735 20.5887
0.343966 8.98389 14.3133
3.89599 2.83934 1.68655
1.37369 20.8484 65.6397
12.2228 3.43151 7.49123
6.11948 0.628771 2.01784
2.49363 7.78548 20.2873
6.04822 3.07355 14.7995
8.69081 3.44105 0.894986
2.67312 3.42954 8.28736
5.80669 3.00569 6.55353
1.59532 1.66965 7.36262
0.739688 9.62598 19.1428
3.24137 1.06059 1.70656
4.52358 5.28542 18.2131
0.109953 2.18766 0.760665
0.386072 1.01537 0.68856
0.670733 1.31665 4.21608
5.25379 4.36031 11.8309
4.56517 5.63909 12.6227
0.107194 3.28043 16.4267
4.56681 1.58729 4.14813
8.8892 6.12638 3.79399
11.3671 15.3097 22.6891
4.28357 13.7245 69.9166
5.30926 8.93322 1.46873
2.41403 1.76189 0.438263
7.75201 13.568 38.0332
0.174353 0.672631 2.49231
1.02936 3.35645 5.8897
0.778158 2.59277 4.36238
2.19935 1.36881 9.0301
7.99447 8.13531 28.0973
4.48858 2.01449 1.73255
4.8242 2.28401 1.25218
4.31214 1.17466 0.064102
4.18562 2.50797 6.81025
2.6329 11.4164 28.5711
7.82452 6.7795 30.0477
5.38725 5.27841 0.122739
2.19863 10.0868 25.7533
12.3444 12.8802 13.6753
3.14496 5.28545 20.9348
0.936721 16.0274 37.2185
7.25886 4.41223 19.3871
2.56692 1.18836 3.13251
2.7381 4.54223 10.6303
4.78477 1.32104 4.39485
3.47173 1.01641 10.4193
5.95355 4.60835 5.83954
0.726587 1.28887 1.26761
2.09194 8.00551 44.9902
7.49858 6.73485 0.153271
1.0761 8.02831 4.94947
0.533032 15.3022 38.5644
4.23607 1.72761 18.4454
5.92878 0.102088 11.8164
10.4857 9.7721 19.1777
0.257055 5.21993 11.2286
2.99493 1.25623 15.0692
2.65152 3.92973 5.689
0.65702 3.04752 4.04966
0.350227 2.84192 18.5837
1.24328 0.668697 13.5721
3.89677 24.6348 35.6913
8.50387 29.373 49.5443
2.28387 1.82867 11.3967
3.66115 1.59853 7.76254
0.926665 8.68413 14.2601
3.27997 5.27186 17.7124
1.83229 6.8136 57.9044
5.11986 9.96295 19.1639
12.5674 23.1023 45.0005
0.254328 6.4416 18.1752
3.10844 10.8264 30.5544
9.41206 4.82606 2.78662
2.84675 4.35694 17.2755
1.70346 0.035265 8.60011
2.62416 3.69735 0.290599
1.52839 4.5758 5.2373
0.663009 3.82199 13.0435
1.07028 4.63677 12.0801
2.93065 0.71731 9.69103
7.26043 11.4883 32.7844
4.49211 2.81226 2.71635
3.25635 7.23215 27.57
0.59309 0.165558 4.78406
0.539235 0.0536515 4.5131
1.13932 1.7534 3.89012
0.692009 0.901637 19.9674
1.70717 5.29924 0.526627
1.86641 2.08536 2.88531
1.46313 4.09601 9.89979
0.23023 4.74835 3.24981
1.50942 0.194606 0.216534
2.79063 2.06865 3.5248
0.561403 0.95022 18.3479
12.0643 19.356 16.1708
2.66945 7.44756 21.3766
4.02612 3.56279 5.82353
3.48538 13.3044 54.5529
5.06345 2.80651 2.38562
3.49654 4.01992 3.94491
2.59463 5.33845 22.1973
1.28035 6.49564 21.6237
0.33173 5.81255 49.073
11.7473 11.8782 5.31905
3.74563 1.9864 1.55725
5.65105 6.58055 8.12573
2.15384 5.89054 32.9311
0.83858 7.63594 15.5677
5.89064 7.00674 18.2504
0.535735 3.32131 6.17983
2.82869 0.652747 0.145572
2.03001 4.14095 15.1767
2.28968 1.97828 3.46791
4.92659 5.23033 17.4706
0.82629 5.1802 14.0588
0.854033 3.90048 20.4474
8.73852 6.0142 14.6493
2.2887 3.68432 12.2599
10.7656 13.4052 18.7166
1.26682 1.28306 4.38833
1.28678 1.14019 5.33776
1.90796 2.64523 28.927
10.6092 14.4097 27.9193
1.5185 3.44221 9.28049
0.544991 4.48192 14.3093
4.15737 2.6562 25.8819
8.74288 7.64405 4.40944
1.60388 1.10849 4.66641
2.87413 0.452622 2.53906
2.83885 0.146284 1.64092
3.21898 0.282979 11.8002
10.1426 20.8416 39.6703
2.01446 1.87313 11.1539
5.79609 6.02812 9.1864
7.2913 14.4962 35.8015
0.676307 2.44324 18.9186
5.81156 3.28705 1.88795
1.88046 0.526621 3.59787
0.785285 1.04349 1.25997
1.21429 1.77122 26.787
8.34681 23.3299 37.9503
3.39924 0.83423 9.46096
2.37177 3.30657 16.0045
6.06734 2.38829 3.89819
0.907491 7.06242 27.0093
7.36143 4.18342 6.62263
2.13784 3.86692 10.3719
2.44997 1.92665 5.81773
2.92456 3.06521 9.86195
0.0190159 2.81972 2.33463
0.821656 2.8233 15.3571
3.93448 0.765666 2.07675
3.10849 9.49441 16.0969
1.37037 3.58919 24.2
1.68517 0.653835 21.8863
4.31459 6.076 12.0793
6.1048 7.83365 10.6435
7.34202 15.3772 40.1607
0.385321 8.49819 49.8574
5.20936 9.64567 6.9558
1.40146 0.154747 3.05328
2.53429 5.0281 22.9407
0.456647 5.06188 3.18203
1.40497 0.580633 5.18777
0.327951 12.4141 22.5352
4.08745 8.8539 32.0852
5.10337 1.14236 12.394
4.05513 3.95713 2.67796
3.07706 4.31488 18.8843
1.05653 2.36957 3.34609
0.402401 0.259737 0.867035
1.39414 0.717966 2.55403
1.87708 10.0554 28.4432
0.843359 0.052442 11.9421
0.497884 8.34781 12.9935
2.53505 0.644977 3.02281
0.460007 3.86687 16.9231
0.22748 3.05181 8.30764
1.05146 0.306739 10.8302
0.0945434 3.50073 27.429
3.6294 16.7067 26.1804
4.2501 2.67113 21.1544
4.98668 19.6487 56.6708
1.23176 6.77049 25.5661
3.51514 9.32679 16.4319
2.03899 12.9045 28.3679
2.14154 2.07581 8.29926
3.21497 0.440348 2.62217
1.10712 4.17061 13.5518
1.74184 4.63095 13.8469
4.61334 1.7318 1.29096
0.988564 0.165956 0.604304
0.272194 5.28129 47.4864
16.2175 35.9719 95.203
2.1288 6.15056 2.62172
0.806876 0.482675 2.52539
0.670254 2.25113 11.7078
3.95754 0.848026 2.56285
3.26215 3.8629 3.21315
0.830227 1.13502 2.23787
1.63586 1.95559 14.1807
1.27079 12.4663 30.816
1.28225 4.53486 43.838
9.26889 8.72724 2.52665
1.40258 4.5186 11.3424
1.3185 0.0481873 4.58208
2.98495 5.71435 21.1664
3.46899 7.45506 27.3922
0.394046 7.73184 22.1456
5.21697 6.34698 13.0942
0.847794 0.073528 5.85314
2.13182 3.56638 8.34371
1.67073 5.20387 30.9578
5.13968 7.84619 5.65661
1.20862 2.2748 27.1927
9.53208 25.8525 80.8696
6.36831 12.9484 31.5786
0.647901 8.48305 25.5608
5.67279 3.4962 4.7633
3.51352 7.35822 24.0521
0.788873 4.32083 10.1079
0.541995 0.722877 13.9104
3.12834 9.07943 18.7108
0.401463 7.65946 35.7622
5.16538 5.3705 6.69587
1.30822 1.50872 14.4462
2.64841 3.24364 16.3793
4.17696 1.77988 44.0405
10.3857 17.5906 4.36922
1.85844 10.3406 20.0846
0.000275701 7.00154 18.4196
0.836146 4.6367 44.5246
7.5769 9.2628 9.35018
0.565594 0.605431 3.3224
1.48688 1.57362 1.45196
0.400026 9.9976 20.8659
2.24239 4.12911 50.4257
11.6809 15.0851 28.6519
2.30985 3.44985 0.278062
2.85007 11.2152 40.5074
1.32006 0.783291 8.49712
0.358385 0.29038 15.4283
0.750021 3.43648 13.5062
5.48714 16.3454 27.8803
0.00512306 6.16092 53.1441
4.95305 12.018 19.8683
1.24225 4.53547 8.37377
1.84901 0.843961 8.21785
0.46497 1.38319 11.0677
3.0813 8.18353 14.2064
0.76614 0.305747 4.1632
0.265379 14.9023 36.9122
3.98447 0.257085 6.63862
2.96614 2.86537 17.9952
1.52505 1.08432 1.97399
1.2792 2.15623 6.20222
0.802927 7.33405 26.6175
2.45816 5.73718 13.7553
3.23065 2.96049 12.7848
0.864844 0.507778 1.99494
0.607597 1.01386 3.85134
1.50694 1.00529 2.13249
2.32818 4.66515 20.4166
0.959901 1.44023 8.23011
3.35191 3.17915 0.582172
1.6728 3.7955 3.98753
1.24345 10.2039 55.9254
3.95533 17.0041 52.7584
3.67755 1.82144 22.683
3.43544 6.74817 12.9965
0.585158 2.07037 0.56223
0.935083 2.27046 25.7638
1.94707 8.19415 18.366
6.03207 13.7023 32.9856
0.852619 3.84039 18.547
0.354526 8.26934 40.394
5.47319 15.386 40.9114
3.04919 1.79143 13.4949
0.97451 7.84891 15.2768
3.50631 2.76338 6.0545
0.355954 0.14276 3.50666
0.495032 0.213576 3.73386
1.18459 4.47131 6.76704
1.18572 0.795199 9.4466
2.00563 2.43024 7.41977
2.12174 0.987028 1.67446
1.46016 0.839418 2.25842
0.497801 0.68955 4.74405
0.0505024 7.55779 46.2208
8.17625 10.2946 9.87997
1.28005 7.30046 45.6716
1.59968 3.7154 3.45457
1.80643 23.1817 90.414
7.00587 3.49406 1.05451
1.8961 4.17687 22.9754
0.857446 9.25115 15.9396
1.78912 1.33473 5.04773
0.0572938 7.77844 20.6709
2.7567 0.106686 1.01677
0.704218 0.565726 1.81666
0.366993 4.93981 10.7594
0.726869 5.83467 69.0023
9.83736 13.2443 4.76178
0.793546 3.14169 12.7022
0.0339985 5.44956 33.2811
4.19545 5.25177 3.31659
2.87664 10.6141 32.9454
1.32269 0.796345 1.00606
1.85374 9.51938 71.8037
2.67335 9.49544 3.46552
0.384067 0.630443 1.51779
1.33277 2.10515 14.8268
0.668516 2.39126 11.9072
1.0706 12.3967 20.2775
1.90399 4.16773 30.7165
0.744266 4.28503 2.42515
0.168694 0.917493 1.30953
1.44284 4.58847 17.437
0.0712319 0.12996 9.36538
0.105527 2.54862 8.40323
2.27415 4.3938 5.316
0.764249 2.69068 20.8362
0.476153 2.15669 2.7869
0.736392 1.7359 24.1663
1.52742 2.39077 4.62167
2.77906 4.11401 10.3815
2.28764 14.5863 66.8696
1.11599 0.281827 34.7328
2.83299 7.69555 16.3598
1.4807 15.9574 8.40645
1.58201 7.10624 16.9473
0.428797 17.8457 49.5303
3.15815 0.00447798 5.31426
2.29884 3.38499 5.31071
0.788104 2.83605 10.6779
0.693436 4.94501 21.6329
0.157182 2.78557 66.9343
4.56352 14.0913 8.36206
0.434872 0.520215 5.46143
2.43413 6.46022 21.8511
0.204342 0.636376 0.209126
0.661043 4.92623 41.6551
4.88482 4.93628 0.60141
1.04645 3.69905 24.127
3.37273 6.17721 7.97517
0.283388 1.2559 7.97122
0.462529 1.45365 23.9866
1.48131 0.722856 6.96279
0.582288 3.21989 14.6056
3.29616 2.6825 4.86188
2.79631 5.44513 18.8718
1.22439 2.06851 0.499554
1.07904 0.00660863 18.5346
5.95955 18.2443 24.8352
2.14728 8.73255 10.0373
0.730948 18.3814 120.009
3.92912 2.56727 66.6601
4.74941 26.5977 35.5041
3.47481 3.29703 3.31142
0.112678 8.46213 51.2582
5.90556 8.18289 4.61104
0.959026 2.61743 6.0748
0.0353341 1.0626 5.25965
0.664505 0.38916 8.65213
2.18796 13.4457 40.4552
2.93928 0.370201 1.57695
0.221769 3.46072 26.0876
3.61118 5.17227 26.3632
4.17475 4.35775 15.1542
2.57947 0.257106 13.8783
3.07903 16.2197 34.6836
2.97583 1.57755 11.6401
1.4629 12.5264 174.089
20.0652 21.5988 4.98795
2.73442 18.7424 27.1464
1.43142 0.751082 9.73595
2.13011 0.829678 0.953618
0.540476 3.11064 7.30671
0.85471 5.90076 60.777
6.46275 14.5544 40.6587
5.38585 7.1345 10.0778
0.364477 4.99706 34.333
2.26634 2.01321 19.7749
2.1477 5.1639 8.51993
1.64981 18.9034 14.5633
0.478679 7.19999 30.2058
3.00954 2.86404 13.9951
1.06919 0.662823 0.133329
0.134322 1.40482 11.8968
1.55135 6.5796 28.4033
2.31625 2.40819 1.14719
0.373473 5.08095 21.9153
3.87328 6.83149 6.94595
0.143258 4.41549 41.5536
2.49892 8.63167 9.51421
0.370277 4.50586 50.6007
6.75904 15.5368 49.8647
4.62149 4.83313 2.66799
1.883 8.13227 13.5943
0.562387 11.1784 20.5326
0.951275 1.33012 13.2548
0.460264 1.85176 1.10102
0.38379 1.35446 1.48883
0.505068 3.88875 6.24013
0.480485 2.05729 3.16514
0.194032 9.36065 46.5609
4.45464 21.6054 131.578
8.62261 8.0091 59.6443
7.44272 10.9664 0.999524
0.264338 1.03032 0.302614
0.0994285 1.24829 12.7928
1.7886 1.72272 12.7685
0.481376 3.18549 1.96904
0.554716 2.97353 14.0475
1.3852 5.35593 11.5051
0.678173 0.870827 22.6948
0.704092 1.20411 10.2152
0.339686 4.24059 4.44697
0.341282 7.65935 8.44643
1.30185 9.06446 22.5314
2.51203 4.75422 23.6814
0.551228 2.97091 26.027
2.41949 6.69318 11.2558
1.32896 0.245209 3.68631
1.47372 2.13878 3.8002
0.745167 4.73069 19.2519
0.337379 0.0519921 14.2041
0.558119 1.25226 10.8466
1.4913 8.13216 10.8707
1.32635 2.47221 8.16316
0.896677 3.76662 17.5817
0.444078 1.52545 4.57143
1.35985 5.85053 26.4891
1.35798 6.7689 22.8187
0.858032 0.734111 1.08363
0.193411 4.7635 25.6989
2.0014 0.227208 9.60475
1.20053 1.63518 3.9872
0.239755 8.81975 39.0501
3.87922 1.08491 7.04669
1.21415 2.43751 11.8465
2.38803 14.3116 78.5488
8.43528 18.2476 46.1341
2.51216 4.11557 18.3687
2.36593 10.8977 79.809
8.83666 15.3502 5.45164
0.116968 0.371237 7.77782
1.73755 8.86058 12.2453
2.2253 15.3957 68.7119
2.64074 10.0861 15.2048
1.54414 3.62381 14.3613
1.7428 2.14944 5.59627
0.241807 0.54754 1.18276
0.322792 1.41726 20.1354
1.58912 9.22121 9.59667
0.855659 8.18456 53.8158
3.2274 2.85604 8.15324
1.08095 0.0363886 4.56261
0.816426 1.11342 8.79917
0.23806 7.43678 43.7841
4.62169 11.2682 31.1805
0.652566 0.443137 1.01662
0.0849562 0.75525 15.2482
0.242632 0.297215 26.0171
1.42835 8.15881 26.4052
1.13387 10.3641 27.3864
2.12923 4.20546 40.2844
4.85803 6.65945 1.49393
1.20138 10.3905 16.2258
0.084729 1.38574 23.6979
0.812342 7.04143 4.31238
0.191877 7.0841 74.0555
6.24966 10.186 4.28332
0.122084 5.52037 21.2475
1.37348 3.64017 30.3294
3.0387 13.524 22.1965
1.79291 9.05704 46.0436
1.89489 0.567143 8.35569
0.483947 3.85195 34.5201
3.21127 6.39363 15.0187
1.72694 1.36769 12.9822
1.88071 4.29508 1.26533
0.583425 3.4025 15.9444
1.81967 7.46894 7.51011
0.000564129 2.27175 12.4568
0.332335 3.18363 38.1886
1.42269 6.79713 29.7623
2.20093 6.42278 3.92424
0.0100597 8.88692 53.2181
4.41345 3.65336 0.172157
0.445863 3.37387 25.5691
1.35247 10.4103 28.2628
2.01682 0.71993 7.32199
0.19375 3.17061 56.9183
5.23292 15.6956 12.8368
0.906597 4.2323 34.7673
1.56323 6.90621 14.525
1.57087 1.27123 1.92174
0.00226028 0.234958 0.681944
0.196344 1.32022 19.3377
1.50615 9.86962 16.9252
0.688853 1.12777 12.336
0.736093 0.66539 15.3986
1.39374 3.90594 9.08929
0.804853 3.45255 13.9971
0.384891 7.14055 64.3523
3.58529 7.37009 19.9053
1.26256 8.64543 27.3534
1.279 3.28236 0.941866
0.219695 0.207465 4.56541
0.412705 3.15262 31.9171
1.67858 4.79191 2.97045
0.0540598 0.0127876 2.03254
0.0872462 1.16254 53.8679
3.36083 15.8772 22.8614
0.796029 4.10766 2.85719
0.48347 0.101079 11.8147
1.29068 5.42036 32.0404
1.51269 9.9692 9.47265
1.06164 4.23143 18.0923
1.91712 5.53567 8.0368
0.260218 1.86614 3.51434
0.524861 1.72539 0.217372
0.364073 6.85743 23.1191
0.821548 1.0204 1.24698
0.134095 0.249993 2.08531
0.617758 8.17992 25.6287
0.811464 1.29562 62.1713
4.07414 28.641 48.7331
2.59344 2.86946 4.65744
0.453311 1.75611 10.4095
1.07084 5.43124 24.8557
1.84818 1.15167 44.0285
3.82225 2.82112 3.55094
0.765696 1.19179 4.91578
1.03658 4.25174 4.01027
0.0908757 3.51801 70.0887
5.53487 16.5143 8.70601
0.0949329 5.53665 25.6146
2.13391 1.06979 5.07188
0.763466 2.82936 9.44829
0.566559 6.13161 16.7152
0.994838 0.784071 9.95123
0.370476 12.1187 79.7315
5.54328 3.44887 29.9083
3.24253 12.3924 0.420285
0.134816 12.9589 67.7309
3.32801 7.66279 22.9341
1.56897 3.34499 2.24517
0.0416549 3.12382 36.6354
2.9194 4.39244 7.38973
1.3089 23.1959 62.4969
2.50582 2.79498 45.6472
2.30107 14.2705 122.658
8.06548 11.7027 20.8509
2.28382 19.3101 17.549
1.07699 2.93577 5.59244
0.256074 2.82761 27.5074
1.04328 1.75591 18.3459
1.25197 6.32002 18.2531
2.18949 23.0272 65.727
2.81863 1.56276 4.52062
0.238472 1.52593 35.8329
2.892 25.556 82.3217
3.93871 5.46635 3.70821
0.245176 0.567758 1.30857
0.265429 2.84625 11.0253
0.473583 0.184237 11.6341
0.826243 2.87569 3.3707
0.235513 4.03558 38.0924
2.00299 7.27901 16.5154
1.33872 5.41875 12.3751
0.469197 3.896 25.3722
1.40427 3.81472 35.617
2.55186 6.81839 32.0415
2.40658 6.55966 26.9785
1.79671 7.24297 18.8558
1.14663 0.872619 33.1276
2.80928 12.7715 19.4638
0.929503 1.10216 5.56799
0.648689 0.583028 9.51156
0.700601 3.86643 5.25767
0.277508 0.930077 0.649455
0.128461 1.84733 21.4554
1.6996 3.55796 9.09239
0.922947 1.91936 10.2081
0.367706 5.53295 74.021
5.22449 15.9338 8.63854
0.285899 2.95806 3.98331
0.231354 5.11566 16.9578
1.14312 4.4327 13.8741
1.08927 0.99156 1.1469
0.0432906 7.19002 48.8223
3.32266 3.51509 0.297399
0.000855995 0.168771 21.1898
1.332 9.82062 18.417
1.2205 2.08611 0.522159
0.0314875 5.24424 51.6007
2.93022 2.53509 12.5437
0.765863 10.7765 36.4632
2.43644 6.48731 13.2271
1.15278 9.95406 29.7596
1.53842 2.00292 14.3829
0.817721 5.31669 19.2442
1.19138 4.38741 23.3457
1.57175 4.96533 3.03308
0.284184 8.05521 70.32
3.72323 10.6877 15.8507
0.942647 2.62537 25.5075
2.00932 3.01364 2.26615
0.365117 5.73803 16.8559
0.801651 1.65959 3.15118
0.403465 9.6198 54.9293
3.1179 3.12875 5.86541
0.562155 2.0015 15.6939
1.15486 9.30339 76.6081
4.64313 11.5391 2.81928
0.151356 0.221536 2.9252
0.255134 2.11932 1.30535
0.0975702 3.09202 11.6033
0.643544 3.92906 51.796
3.48193 13.6565 9.92381
0.516634 0.0453064 3.69028
0.192914 3.92322 15.5324
1.06939 4.94546 8.19093
0.635392 7.22441 11.4394
0.820142 0.829082 29.4865
2.11414 16.3965 21.3191
1.38873 2.19934 23.1426
1.72944 0.282835 5.33275
0.511509 1.1751 15.2787
1.25555 1.82709 5.31246
0.327852 2.45927 26.2338
2.01558 1.72414 26.8146
2.01619 4.12414 8.07911
0.613827 2.22556 18.3595
1.39348 2.61683 81.8239
5.16142 24.7425 75.4082
5.28994 24.036 9.39921
0.438174 5.38681 19.628
1.05005 6.63034 50.7114
3.41091 5.28694 2.40697
0.120294 2.05646 11.6867
0.814275 2.65883 4.70238
0.275577 9.24401 22.4223
1.39853 5.24285 72.9489
4.66287 0 0