# pn-170911/RbIIA-34-USN3-1280-1959.psd
# Power spectrum* (dif=0,1,2) (really just |FT|^2)
# NOTE: only the first half! (symmetric)
# weeks: 1280-1959
# 2955 clock-days, 624 excluded
# PSD: 1441
9131.37 0.158484 0.00877668
209502 3.23772 0.00453496
1.2463e+06 25.2761 0.00501318
168344 6.12406 0.00477984
112231 7.32754 0.00510669
56946.7 5.69579 0.00513862
40331.7 5.64873 0.00537958
29336 5.63893 0.00573644
23317.9 5.71618 0.00608487
17928.1 5.76352 0.00666967
14606.7 5.50621 0.00697702
12068.8 5.70805 0.00778559
9854.01 5.47656 0.00802424
8830.1 5.6213 0.00930623
7497.11 5.62846 0.00957487
6639.23 5.6723 0.0106414
5747.79 5.62075 0.0114773
5146.5 5.68632 0.0123095
4523.48 5.596 0.0133107
4027.29 5.71043 0.0143811
3727.98 5.73524 0.0153093
3437.46 5.69769 0.0167982
3052.07 5.62812 0.0176495
2743.71 5.52555 0.01868
2548.33 5.5259 0.0197286
2302.03 5.55943 0.0212442
2188.76 5.58854 0.0225178
2014.79 5.64567 0.0245449
1893.11 5.70359 0.0259319
1751.31 5.55895 0.0267946
1583.56 5.38289 0.0275088
1548.35 5.7087 0.0303521
1383.25 5.399 0.0306473
1386.55 5.75438 0.0340814
1262.85 5.58646 0.0347454
1158.09 5.44661 0.0360953
1111.74 5.56767 0.0384947
1090.48 5.72315 0.0420221
989.464 5.50952 0.0417714
939.72 5.45051 0.0439324
915.684 5.66956 0.0469934
855.84 5.53156 0.0484873
812.061 5.61268 0.0517781
789.02 5.48996 0.0526718
746.116 5.55702 0.0558321
721.865 5.47577 0.0572239
674.938 5.46886 0.0595063
675.438 5.68067 0.0638474
617.141 5.39431 0.0629059
627.519 5.66503 0.0688206
563.841 5.34057 0.0682341
569.606 5.62659 0.074018
542.171 5.59985 0.0768241
516.673 5.45689 0.0779888
505.951 5.65234 0.0819248
490.542 5.58845 0.0854746
469.513 5.72716 0.0899173
457.073 5.58267 0.0896215
428.474 5.49462 0.0922156
417.934 5.53799 0.0967502
398.334 5.60178 0.0999478
385.38 5.48681 0.102185
390.026 5.74733 0.10973
363.121 5.5067 0.108493
367.525 5.77162 0.116267
342.852 5.57058 0.115863
335.376 5.58802 0.119538
331.706 5.76252 0.127353
311.477 5.4953 0.124602
303.356 5.6334 0.131995
299.575 5.55401 0.132948
288.068 5.55779 0.137337
288.901 5.77776 0.148074
275.837 5.61166 0.147411
266.302 5.56216 0.148638
265.085 5.65149 0.156104
253.653 5.57855 0.157527
248.875 5.68751 0.16472
240.861 5.60034 0.166522
233.437 5.62786 0.169927
227.046 5.49918 0.172434
228.351 5.7865 0.185123
213.965 5.51858 0.179656
208.258 5.47059 0.184237
202.324 5.39866 0.186981
206.56 5.62225 0.198383
195.36 5.4422 0.196219
192.56 5.56077 0.205454
186.478 5.56624 0.208441
180.783 5.47186 0.209189
182.089 5.54233 0.21756
175.304 5.48513 0.219423
172.085 5.49057 0.224984
171.416 5.64694 0.236484
165.379 5.5202 0.237933
159.594 5.48136 0.2366
155.299 5.53282 0.247394
160.936 5.78242 0.262118
153.64 5.58174 0.258654
149.228 5.63878 0.26556
145.692 5.6078 0.272096
148.329 5.74712 0.282829
141.182 5.55224 0.277698
140.151 5.6149 0.287999
134.594 5.63354 0.293656
131.657 5.55805 0.295788
131.51 5.5612 0.301132
131.784 5.6955 0.310192
125.371 5.58814 0.315016
120.346 5.54821 0.316068
119.838 5.52278 0.321649
116.466 5.49339 0.32471
120.146 5.7002 0.343165
115.329 5.60195 0.343418
113.236 5.58906 0.347707
114.15 5.70612 0.362223
108.832 5.65587 0.364462
107.582 5.76367 0.376913
106.794 5.7203 0.383711
104.343 5.56094 0.37884
99.8496 5.51387 0.382119
99.6732 5.53807 0.389924
100.711 5.74682 0.410198
98.4428 5.5922 0.400045
94.816 5.57719 0.412305
92.7194 5.53044 0.414912
93.1224 5.54869 0.421494
93.7766 5.79524 0.445327
90.4281 5.62711 0.438553
88.3958 5.59429 0.44656
84.8237 5.51418 0.441725
88.729 5.90165 0.482958
83.7534 5.64002 0.471777
85.0507 5.62656 0.47667
81.4049 5.44639 0.463913
82.2148 5.6755 0.495039
78.7278 5.57274 0.49188
79.9516 5.70966 0.511158
79.3831 5.75703 0.520669
75.5607 5.54624 0.509568
73.7858 5.62379 0.525133
74.147 5.62336 0.532533
70.0377 5.44095 0.522578
70.293 5.53109 0.537362
71.942 5.59956 0.549681
69.6197 5.64532 0.56923
70.0613 5.72593 0.580356
69.1423 5.59274 0.572348
65.791 5.58938 0.584917
66.1668 5.61937 0.594581
68.124 5.80338 0.619428
66.7458 5.71733 0.61925
64.2452 5.65507 0.621891
64.743 5.76839 0.646001
61.5026 5.51728 0.622807
61.5262 5.61205 0.636413
59.9511 5.56515 0.64111
61.194 5.70519 0.668944
59.8657 5.74222 0.684148
59.1327 5.70169 0.683762
58.527 5.78002 0.702791
58.2604 5.73337 0.707721
56.9529 5.71756 0.709608
55.9456 5.61182 0.709057
56.2772 5.69218 0.721707
53.9082 5.5615 0.719316
54.9374 5.73308 0.743758
52.441 5.63198 0.744795
52.3308 5.57743 0.746363
51.1146 5.47834 0.741093
52.2198 5.67767 0.774242
50.6764 5.57487 0.770082
50.717 5.64867 0.790103
50.0904 5.696 0.808013
48.0261 5.37594 0.773288
48.1601 5.74369 0.833207
49.4511 5.75264 0.842664
48.1274 5.74272 0.849402
48.027 5.75884 0.865114
48.3598 5.79036 0.879131
46.0696 5.64791 0.866856
46.1915 5.83075 0.902756
46.2201 5.7731 0.902188
44.0622 5.66146 0.892698
43.877 5.52858 0.88485
44.2133 5.64456 0.913366
41.8548 5.55286 0.903663
42.7582 5.77989 0.958151
43.0396 5.8617 0.974562
41.969 5.62754 0.949771
41.7349 5.64276 0.955316
41.0731 5.66486 0.981289
41.0879 5.74899 0.991659
40.5923 5.65719 0.98831
40.2183 5.76205 1.02118
40.3384 5.85373 1.04539
39.4682 5.56811 1.01006
40.3805 5.89348 1.07242
38.5527 5.60586 1.0357
38.315 5.55273 1.03492
39.6639 5.93081 1.11324
36.6707 5.6674 1.08724
36.3723 5.69106 1.08983
37.2042 5.80358 1.11689
36.4949 5.80587 1.14148
35.4469 5.62633 1.1088
35.6965 5.73562 1.14286
35.8904 5.79889 1.16836
35.2475 5.70925 1.15629
34.3127 5.58454 1.15386
33.7432 5.58319 1.14994
34.1268 5.60032 1.1753
32.6086 5.67743 1.19457
33.7162 5.67004 1.21181
32.6543 5.60336 1.20252
33.0551 5.80503 1.26203
33.1042 5.76612 1.26116
32.807 5.72238 1.26644
31.4687 5.7409 1.27855
30.6796 5.57414 1.2525
32.0453 5.72901 1.30019
30.8221 5.65326 1.29428
31.7045 5.89702 1.35657
30.1166 5.64502 1.31581
30.5576 5.66079 1.32185
30.0547 5.68921 1.36381
29.2045 5.57616 1.33182
29.3125 5.72461 1.38414
29.5021 5.80783 1.4027
28.8452 5.63807 1.38179
28.3032 5.53804 1.38042
27.5789 5.69948 1.41353
27.2032 5.43606 1.37682
28.2061 5.72043 1.44892
27.7719 5.70758 1.46021
27.9327 5.89436 1.52681
26.8027 5.58804 1.44585
26.8232 5.7412 1.51469
26.9244 5.72571 1.50871
26.7912 5.71747 1.52776
26.6868 5.71121 1.54036
25.8411 5.69089 1.54639
26.3189 5.80294 1.58439
25.6096 5.65635 1.56404
25.8093 5.7837 1.61164
26.3788 5.97098 1.65628
24.7667 5.72001 1.6175
24.5401 5.67001 1.61656
24.7442 5.77218 1.65517
24.3481 5.74361 1.65209
23.8646 5.54074 1.61836
23.871 5.65818 1.65212
23.9568 5.60511 1.65197
24.4126 5.80509 1.7243
23.7866 5.75717 1.72776
23.843 5.81014 1.75251
23.0066 5.68215 1.74427
23.0038 5.8435 1.79026
23.0824 5.77089 1.78722
23.1502 5.93484 1.84541
22.9061 5.8097 1.82783
22.2782 5.70015 1.80031
22.0188 5.77223 1.8458
22.2426 5.76649 1.8587
22.4192 5.80944 1.88085
22.2126 5.75327 1.87099
21.9564 5.76622 1.87648
21.8691 5.91057 1.94549
21.3853 5.74807 1.91452
21.2151 5.78705 1.94945
21.2521 5.7896 1.94974
21.2022 5.86148 1.99631
20.5753 5.68447 1.95329
20.1344 5.60972 1.945
19.99 5.63076 1.96491
20.8142 5.87382 2.04779
20.5885 5.93565 2.08391
20.266 5.76422 2.05087
19.7294 5.95008 2.13402
20.6759 5.98236 2.16322
20.421 5.94024 2.14001
19.8699 6.00325 2.21209
19.7668 5.74831 2.09867
19.445 5.92449 2.20074
19.2411 5.85658 2.17669
19.6268 5.91963 2.23546
19.9031 6.10775 2.30276
19.4337 5.88255 2.22653
18.6708 5.68385 2.18272
19.1223 6.07139 2.34956
18.6442 5.82529 2.26262
19.0337 5.90417 2.29432
18.186 5.7517 2.26443
18.8187 5.94159 2.34466
17.9379 5.86501 2.32287
17.6629 5.81211 2.33055
17.7464 5.86329 2.36858
17.3507 5.84742 2.39413
17.4179 5.69319 2.31584
17.1838 5.76515 2.38601
17.5599 5.80681 2.39853
16.9685 5.70894 2.35468
17.1486 5.8876 2.47363
16.7301 5.83529 2.48001
17.7394 6.07778 2.57449
16.6104 5.71528 2.45755
17.381 6.06164 2.61394
16.9348 5.82924 2.51869
16.432 5.74341 2.49922
16.345 5.77689 2.54542
16.1106 5.75323 2.53374
16.0785 5.79611 2.55294
15.5576 5.63937 2.51053
16.0418 5.99305 2.69595
15.5404 5.5794 2.52024
15.6532 5.66951 2.56895
15.5869 5.70228 2.62432
15.6488 5.78905 2.66644
15.6187 5.88805 2.73168
15.6282 5.89771 2.74952
14.9714 5.58097 2.62659
15.24 5.78254 2.68804
14.8498 5.78629 2.7468
14.7373 5.66491 2.6984
14.6675 5.66449 2.72954
15.0272 5.82526 2.81782
15.3368 5.97366 2.88494
14.1609 5.67448 2.77275
14.5418 5.72665 2.84043
14.5548 5.7275 2.832
14.8945 5.94304 2.94263
14.1899 5.81804 2.94918
14.603 5.84681 2.91378
14.3885 5.84173 2.952
13.905 5.69444 2.90068
14.07 5.85085 2.98306
14.3414 5.93465 3.04322
13.5386 5.68421 2.94173
13.7492 5.68032 2.9452
13.9344 5.917 3.10865
13.5196 5.79622 3.06471
13.5758 5.79039 3.07854
13.998 6.10589 3.22134
13.0729 5.71771 3.0602
13.2638 5.82662 3.16693
13.6384 5.92381 3.17026
13.4127 5.83837 3.17578
13.1016 5.77858 3.1743
13.1153 5.86757 3.23405
13.2015 5.91877 3.26946
12.9895 5.91894 3.26327
12.5312 5.83767 3.30095
12.9693 5.88481 3.30687
12.7219 5.81116 3.249
12.2971 5.78411 3.29386
12.4866 5.78576 3.32154
12.7394 5.84811 3.33464
12.5748 6.04761 3.50662
12.5403 5.81606 3.35922
12.2539 5.79791 3.38971
12.1972 5.75563 3.37748
12.5321 5.98033 3.527
11.9384 5.76533 3.39953
11.9688 5.72986 3.42191
12.0134 5.7977 3.49703
11.878 5.86092 3.51512
11.6469 5.86107 3.57348
12.1392 5.97472 3.62065
11.9732 6.0465 3.68473
11.8634 5.90674 3.65276
11.5903 5.93514 3.67195
11.6184 5.94017 3.70089
11.8718 5.97796 3.71825
11.9984 6.13615 3.8366
11.4206 5.94616 3.76247
11.0631 5.75558 3.65112
11.2559 5.90618 3.77074
11.3055 5.90353 3.79397
11.1974 5.8752 3.7591
11.2711 5.9814 3.87894
10.9325 5.77349 3.76533
11.285 6.01713 3.91794
11.1134 5.87961 3.83481
11.0478 5.96542 3.92705
10.7239 5.69818 3.7786
10.9521 5.85519 3.9036
10.568 5.83154 3.92263
10.9059 5.87847 3.9072
10.7955 5.88054 3.9993
10.8355 5.97221 4.075
10.5644 5.95617 4.05519
10.8243 6.01002 4.10874
10.6205 5.90049 4.04503
10.4407 5.84475 4.0322
10.1349 5.88316 4.10109
10.1968 5.75295 4.01838
10.3254 5.88655 4.12423
10.5498 5.91321 4.14604
9.95195 5.86173 4.18649
10.3115 5.8673 4.15372
9.88033 5.71219 4.07835
10.0106 5.9647 4.2398
9.87596 5.83349 4.26971
9.92668 5.95231 4.30788
10.0553 5.94005 4.36265
9.91938 6.01852 4.43279
9.92445 5.96759 4.39113
9.67809 5.81709 4.3039
9.89884 5.87514 4.32257
9.86517 6.00628 4.48138
10.0428 6.17513 4.59527
9.79533 6.05316 4.54505
9.57697 5.97048 4.47222
9.48247 5.78534 4.39109
9.13508 5.79813 4.47857
9.2971 5.8072 4.47075
9.51011 5.94134 4.62539
9.46955 5.84572 4.536
9.37284 6.03441 4.68277
9.50843 6.03349 4.68064
9.2763 5.96261 4.67994
9.10886 5.86899 4.59392
9.44576 6.07243 4.80532
9.11809 5.807 4.61492
9.1477 5.9713 4.7767
9.14771 5.95199 4.72946
9.05861 5.93103 4.79732
9.01861 6.04154 4.87894
9.02728 5.97675 4.91134
9.24219 6.10718 4.91552
9.04301 6.02828 4.93723
8.93194 6.08496 5.00233
9.00933 6.06454 5.01422
8.86346 6.03419 4.98342
8.87572 5.97618 5.00188
8.77334 6.01025 5.02371
8.74673 6.07132 5.11356
8.41621 5.77754 4.91716
8.95104 6.14966 5.15981
8.78277 6.00572 5.10594
8.67902 6.07608 5.12751
8.67593 6.06447 5.19184
8.59677 6.15589 5.29747
8.64309 6.00368 5.22141
8.31553 6.04951 5.29699
8.43776 5.95159 5.19138
8.30731 5.93162 5.22146
8.57293 6.14148 5.33109
8.54386 6.01566 5.27618
8.38069 6.1702 5.46059
8.19208 6.0111 5.35764
8.54782 6.19847 5.52342
8.12996 5.90191 5.34908
8.07397 5.97306 5.38504
8.3039 6.11704 5.51251
7.97995 5.90836 5.39508
8.34453 6.09771 5.54501
8.17319 6.06116 5.5158
8.08117 6.06535 5.57574
7.84163 5.8705 5.4466
8.01462 6.07821 5.57822
7.69548 5.99748 5.60024
7.86208 5.90931 5.52112
7.76161 6.07245 5.75046
7.97716 6.12078 5.73119
7.76303 5.9668 5.66061
7.87888 6.1429 5.83611
7.90439 5.92588 5.60557
7.62541 6.02323 5.80152
7.54922 5.81143 5.53669
7.88632 6.08931 5.86729
7.65297 6.04592 5.8408
7.80794 6.2954 6.15487
7.67839 6.01049 5.87843
7.69783 6.14336 5.94485
7.52183 5.92627 5.7998
7.19568 5.9738 5.97875
7.38975 5.95784 5.8569
7.32366 5.95964 5.92227
7.35124 5.92708 5.93594
7.44384 6.14726 6.14435
7.23789 5.86858 5.91326
7.45608 6.15434 6.15302
7.24328 6.03152 6.10651
7.06155 5.71905 5.82395
7.12156 5.90193 5.95458
7.05944 6.03969 6.22577
7.08794 5.94171 6.11015
7.25085 6.12551 6.32776
7.38597 6.27459 6.50959
7.26941 6.13698 6.3584
7.2544 6.16257 6.40081
7.11244 6.13997 6.44465
7.02063 6.13825 6.44964
7.11221 6.09445 6.38207
7.12014 6.23868 6.61517
7.08059 6.12209 6.44884
7.0617 6.11134 6.49116
6.76176 5.85779 6.25836
6.8716 6.06751 6.55284
7.04494 6.27911 6.73286
6.99334 6.2398 6.72237
6.63605 5.84126 6.32108
6.7573 6.0229 6.598
6.51182 5.75421 6.32767
6.87636 6.0925 6.72786
6.84926 6.20121 6.84439
6.77543 6.22312 6.82813
6.73862 6.06877 6.75625
6.71657 6.12244 6.75021
6.69808 6.15469 6.82582
6.71853 6.11885 6.93494
6.69575 6.08154 6.8847
6.75358 6.06129 6.76493
6.39609 5.89799 6.73526
6.71828 6.23468 7.11623
6.45611 5.94897 6.82492
6.74929 6.32807 7.16106
6.52279 6.03654 6.99524
6.42701 5.92276 6.82527
6.49417 6.06747 7.02144
6.69399 6.26371 7.18547
6.33185 6.0062 7.03368
6.42811 6.13502 7.07104
6.22331 5.95726 6.96281
6.35804 6.09783 7.16422
6.3837 6.13836 7.28429
6.34946 6.05331 7.21265
6.43142 6.2757 7.41642
6.38412 6.20613 7.3401
6.19781 6.09955 7.29471
6.25738 6.19367 7.35317
6.05641 6.12817 7.34462
5.94304 5.89556 7.23022
6.14338 6.12331 7.38787
6.14036 6.08599 7.44176
6.19842 6.09206 7.41412
6.13008 6.13493 7.54136
6.06426 5.91059 7.24353
6.00235 6.02545 7.44199
5.94158 6.0082 7.62364
6.02308 6.02144 7.34244
5.94541 6.0679 7.59175
6.33888 6.48867 8.00467
6.05089 6.20744 7.74512
5.71918 5.89624 7.43036
5.83251 6.1776 7.83357
6.04031 6.2606 7.85839
5.91653 6.13698 7.8206
6.03625 6.35856 8.02121
5.87724 6.07452 7.85437
6.02088 6.3669 8.02419
5.86205 6.09931 7.75596
5.91743 6.4373 8.38204
5.9155 6.36679 8.19328
5.72423 6.01264 7.99589
5.90055 6.09972 7.88175
5.85201 6.28448 8.19865
5.80425 6.2763 8.20867
5.84451 6.21478 8.06044
5.76502 6.21811 8.16503
5.85322 6.27861 8.286
5.778 6.21067 8.24896
5.84516 6.42494 8.65952
5.80951 6.21881 8.2911
5.5644 6.12249 8.2082
5.62617 6.10921 8.21015
5.63961 6.2018 8.42
5.76098 6.36945 8.43649
5.52967 6.15462 8.41033
5.51858 6.11287 8.32678
5.71133 6.24029 8.53312
5.64875 6.4241 8.75362
5.85092 6.75342 9.26992
5.83421 6.58869 9.06916
5.6935 6.58916 9.00531
5.5535 6.32983 8.72095
5.68402 6.65542 9.28978
5.63663 6.38324 8.88632
5.59836 6.45932 8.92354
5.56679 6.31967 8.82784
5.59922 6.54696 9.27613
5.44974 6.18659 8.51901
5.24015 5.98098 8.5997
5.34336 6.23525 8.92792
5.33795 6.21805 8.9303
5.51458 6.36881 9.03903
5.47124 6.53522 9.26044
5.4925 6.30754 8.80631
5.27413 6.3673 9.38462
5.41273 6.37366 9.15585
5.21679 6.11728 8.81105
5.30672 6.44858 9.40346
5.32525 6.35098 9.14393
5.14252 6.39309 9.40731
5.30446 6.28711 9.25569
5.24168 6.21169 9.03395
5.21566 6.32575 9.37355
5.18767 6.34398 9.37566
5.17966 6.28856 9.2845
5.07598 6.17965 9.26196
5.24383 6.29324 9.32339
5.10904 6.23673 9.27688
5.34597 6.57379 9.78915
5.12545 6.25073 9.31603
5.11132 6.28585 9.43544
4.94737 6.13126 9.35625
4.95501 6.12798 9.36251
5.19053 6.44478 9.69329
5.06113 6.3697 9.68572
4.9617 6.10077 9.4056
4.96358 6.18975 9.36781
5.01098 6.26723 9.59949
4.87746 6.19311 9.57109
5.09912 6.44863 9.89544
5.00508 6.36412 9.91902
4.89799 6.22883 9.66993
4.95038 6.24659 9.61587
4.75823 6.09789 9.59365
4.81975 6.25038 9.9884
4.98919 6.31683 9.96574
5.03547 6.29519 9.82538
4.8991 6.24319 9.84456
4.94363 6.3727 9.92151
4.86538 6.45233 10.2144
4.80625 6.21171 9.80906
4.82448 6.38529 10.1911
4.7648 6.28585 10.1093
4.78184 6.36099 10.3034
4.96288 6.2763 9.83576
4.77303 6.28072 9.99413
4.76138 6.35114 10.3586
4.67811 6.29035 10.2009
4.88766 6.52905 10.5843
4.65425 6.30458 10.3788
4.75729 6.33018 10.2072
4.65284 6.2092 9.98934
4.52327 6.20465 10.1755
4.59377 6.15713 10.2881
4.63994 6.23887 10.3403
4.40962 6.06543 10.0485
4.67085 6.33545 10.4802
4.58409 6.32487 10.7213
4.569 6.32006 10.4061
4.36496 6.08703 10.3553
4.67145 6.58452 10.945
4.58412 6.27997 10.5709
4.77505 6.46148 10.8281
4.65749 6.44627 10.7605
4.52552 6.38767 10.778
4.5264 6.23785 10.6348
4.50075 6.45505 10.9851
4.53514 6.47446 11.1416
4.42133 6.1605 10.5479
4.50607 6.43765 11.0982
4.5037 6.34905 10.9239
4.43698 6.3413 10.9016
4.53291 6.37014 11.1225
4.56909 6.53616 11.1878
4.42668 6.44984 11.3484
4.38325 6.22853 10.7285
4.38841 6.31569 10.9824
4.35205 6.20422 10.8352
4.41614 6.36883 10.9365
4.23622 6.31662 11.3943
4.44427 6.39931 11.2879
4.47233 6.31908 10.8744
4.2705 6.42084 11.4215
4.25929 6.28632 11.2897
4.26911 6.2658 11.1409
4.26962 6.26863 11.1173
4.29082 6.40195 11.5852
4.33209 6.34724 11.3714
4.42557 6.41821 11.4964
4.31252 6.49926 11.6682
4.29308 6.23725 11.1541
4.24117 6.35775 11.6555
4.32131 6.54349 11.6544
4.15576 6.37278 11.52
3.99431 6.08638 11.3414
4.2351 6.34666 11.5383
4.17496 6.3301 11.6086
4.12922 6.30009 11.8646
4.1605 6.26558 11.5941
4.22758 6.38769 11.607
4.15166 6.45893 11.9202
4.0235 6.07333 11.3437
4.14886 6.35004 11.9108
4.18047 6.33053 11.5158
4.1024 6.34846 11.67
4.03326 6.28442 11.816
3.90456 6.13289 11.6471
4.0333 6.31544 11.8259
4.00746 6.21428 11.764
4.08276 6.24433 11.7605
4.11055 6.45745 12.0661
4.05176 6.44252 12.416
4.06888 6.2352 11.8385
4.05768 6.46691 12.0686
3.98486 6.40331 12.2667
3.92712 6.15543 11.9732
4.03718 6.40781 12.0915
3.95548 6.26825 12.212
3.90808 6.27949 11.9666
4.00854 6.50781 12.538
4.02364 6.42879 12.4654
4.00366 6.38424 12.5194
3.93636 6.25493 12.3091
3.99675 6.33462 12.3074
4.05653 6.44169 12.329
3.96466 6.32271 12.3727
3.87178 6.40166 12.7656
4.02661 6.56046 12.7814
3.87575 6.33353 12.5068
3.99305 6.49375 12.5456
3.93527 6.58404 13.3238
3.96016 6.33904 12.5842
4.10938 6.76264 13.0684
3.8669 6.45256 13.1006
3.98059 6.60349 13.1411
3.95417 6.47468 12.9368
3.87049 6.40791 12.932
3.78898 6.30853 12.7495
3.86265 6.4589 12.9518
3.93377 6.5566 13.0185
3.89456 6.59185 13.3378
3.76766 6.30199 12.7627
3.78974 6.44776 13.1391
3.7923 6.36322 12.9542
3.82385 6.47936 13.1883
3.74073 6.48162 13.3666
3.82375 6.50089 13.4894
3.93554 6.48497 13.0644
3.7093 6.31243 13.179
3.84318 6.50769 13.2816
3.78375 6.46934 13.5329
3.84021 6.39236 13.1057
3.80942 6.69903 13.8419
3.81439 6.54983 13.6453
3.81867 6.56448 13.6386
3.80277 6.50019 13.4941
3.79277 6.62827 13.8409
3.77266 6.52018 13.4305
3.65307 6.38862 13.6963
3.73214 6.41334 13.5194
3.69315 6.61764 13.9802
3.76847 6.46654 13.6079
3.68127 6.62744 14.2418
3.78187 6.55202 13.8514
3.73415 6.37521 13.5512
3.72034 6.54901 13.8973
3.5962 6.27591 13.4699
3.5864 6.62196 14.3755
3.78542 6.64217 14.178
3.6197 6.33808 13.3492
3.56312 6.4333 13.9405
3.71443 6.46233 13.7708
3.51795 6.36976 13.9672
3.65755 6.49374 13.8761
3.60614 6.62365 14.8457
3.7585 6.67297 14.3932
3.65308 6.4153 13.8854
3.65143 6.56905 14.234
3.5855 6.49427 14.1715
3.48292 6.36703 13.9771
3.51346 6.41134 14.0359
3.63312 6.78187 15.0298
3.56912 6.47931 14.3234
3.56979 6.61019 14.6032
3.56676 6.45414 14.43
3.58465 6.54273 14.5603
3.63688 6.60029 14.5366
3.57454 6.47427 14.3365
3.46301 6.3006 14.1673
3.49508 6.59606 14.771
3.40658 6.29743 14.1148
3.47749 6.29927 14.1367
3.42873 6.43462 14.6602
3.52538 6.57362 14.8922
3.40242 6.36553 14.396
3.45436 6.45316 14.6754
3.49296 6.56337 14.6878
3.31016 6.26272 14.5863
3.55732 6.64223 14.9748
3.57356 6.73616 15.3806
3.54794 6.51429 14.7789
3.42801 6.327 14.6588
3.52957 6.67621 15.0279
3.47351 6.486 14.7983
3.43024 6.53417 14.8986
3.45525 6.6665 15.1943
3.42573 6.52363 14.8112
3.31761 6.31671 14.723
3.41228 6.77744 15.8472
3.36462 6.55286 15.057
3.34984 6.47292 15.1907
3.39797 6.47643 15.0153
3.4382 6.70303 15.275
3.27455 6.42364 15.5812
3.41323 6.77158 15.76
3.42169 6.55627 14.965
3.2105 6.40951 15.435
3.40456 6.58025 15.3634
3.25644 6.51037 15.7883
3.36899 6.51274 15.4238
3.41014 6.61045 15.1933
3.18859 6.40892 15.4131
3.21204 6.34925 15.1292
3.32488 6.43089 15.3738
3.31365 6.46895 15.3704
3.22255 6.5064 15.711
3.35736 6.76811 16.2408
3.36915 6.61443 15.6371
3.3096 6.70708 16.2363
3.32179 6.65382 16.2558
3.43511 6.67701 15.7328
3.31414 6.62185 15.6951
3.2862 6.72313 16.4861
3.42096 6.75205 16.3338
3.27474 6.51829 15.6885
3.2459 6.54112 16.0516
3.23389 6.65069 16.3467
3.30022 6.4412 15.6848
3.21525 6.48442 15.839
3.19044 6.53163 16.0315
3.21943 6.61252 16.1765
3.24425 6.56338 16.19
3.23688 6.70342 16.4696
3.24821 6.62247 16.1798
3.19856 6.63792 16.3368
3.18878 6.69259 16.4756
3.12015 6.63229 16.6313
3.21807 6.59521 16.1793
3.18384 6.65248 16.8305
3.1995 6.56876 15.9992
3.11173 6.52052 16.5155
3.12626 6.60429 16.4733
3.15835 6.65064 16.814
3.25946 6.73206 17.0092
3.25127 6.75842 16.9835
3.15849 6.73303 16.9619
3.1759 6.60484 16.9487
3.36718 6.95519 16.8154
3.1442 6.57758 16.7403
3.16038 6.66396 17.1121
3.09756 6.36591 16.2734
3.19493 6.83828 17.075
3.07963 6.56692 16.9666
3.22544 6.77792 17.2574
3.05295 6.44038 16.6768
3.19157 6.86508 17.4936
3.168 6.87269 17.4464
3.16971 6.8957 17.8762
3.16296 6.58973 16.9443
3.16985 6.81727 17.3295
3.05264 6.52662 17.069
3.09515 6.84493 17.8999
3.16489 6.79024 17.9606
3.27273 7.05944 17.7458
3.1785 6.95852 18.2967
3.1979 6.95316 18.2798
3.23082 7.0014 18.5558
3.36511 7.40986 19.3777
3.43663 7.64156 19.0794
3.12523 7.06669 19.6559
3.40741 7.42709 19.4129
3.41325 7.6326 19.3144
3.25997 7.29544 19.0437
3.22553 6.95261 18.3488
3.09758 6.93579 18.6384
3.2139 6.96302 18.2328
3.10545 6.79387 18.0368
3.1041 6.92635 18.3849
3.13984 6.84528 17.7072
3.00509 6.78413 18.346
3.06613 6.8081 17.9867
2.98254 6.65208 17.9808
3.07374 6.72649 17.6021
3.00603 6.75745 17.9145
2.95956 6.79463 18.2142
2.98959 6.83075 18.3499
3.01604 6.6573 17.6246
2.95185 6.82014 18.8665
3.08273 6.81139 18.4196
3.04585 6.63703 18.161
2.97145 6.57798 17.8798
2.98357 6.7454 17.892
2.93308 6.77422 18.7272
3.00563 6.64308 18.1374
3.00095 6.86352 18.5016
2.97971 6.92701 18.6065
2.95682 6.56608 18.2098
2.99366 6.59568 17.6226
2.87963 6.7335 18.9747
2.96715 6.75948 18.6841
3.0427 6.89332 18.6806
2.92093 6.54116 17.8554
2.89341 6.72656 18.3921
2.87823 6.57589 18.4136
2.90786 6.56945 17.9859
2.87724 6.78884 18.3442
2.83994 6.55216 18.4592
2.92976 6.64284 18.708
2.91285 6.59816 18.4051
2.94123 6.80138 18.8408
2.92426 6.91077 19.1191
2.90599 6.67612 18.511
2.89305 6.68555 19.0693
2.89951 6.71685 18.791
2.8701 6.74984 18.5586
2.82052 6.76264 19.5369
2.91704 6.60001 18.5956
2.90468 6.83488 18.8986
2.8509 6.79454 19.0782
2.82648 6.68123 19.1133
2.96917 7.0378 19.8737
2.97373 6.92763 19.0954
2.78598 6.6448 19.0263
2.82837 6.74022 19.4506
2.90893 6.83167 19.4474
2.88501 6.71918 19.3294
2.88713 6.73228 19.1186
2.8329 6.94269 19.4325
2.82836 6.93334 19.8682
2.82111 6.73573 19.5855
2.86085 6.89726 19.7423
2.91524 6.84549 19.3166
2.8337 6.79484 19.7916
2.8265 6.62087 18.9446
2.78035 6.81777 20.1375
2.93495 6.95177 19.8049
2.82613 6.70193 18.9291
2.72854 6.74527 19.9202
2.85775 6.79538 19.6043
2.84865 6.80808 19.756
2.76234 6.75674 19.9051
2.84007 6.71696 19.5602
2.81698 6.93366 19.9505
2.79749 6.93835 20.1038
2.7622 6.70899 20.0294
2.76953 6.81124 20.2103
2.84553 6.814 19.5313
2.84519 6.89611 20.1191
2.71594 6.58732 19.3215
2.77373 6.64063 19.1385
2.71418 6.82876 20.4465
2.79051 6.83909 19.8483
2.73463 6.7346 19.8247
2.74403 6.73314 19.8686
2.68449 6.84959 19.9762
2.69497 6.69889 20.1167
2.77206 7.00918 20.627
2.75298 6.87678 20.4885
2.77252 6.68839 19.9956
2.77541 6.71377 19.9254
2.66493 6.58148 19.4914
2.70216 6.68607 19.7195
2.62466 6.53322 19.9799
2.6731 6.76128 20.2441
2.69326 6.65471 19.6943
2.68187 6.74067 20.1109
2.67881 6.70243 20.7603
2.75193 6.84647 20.5229
2.71837 6.89056 20.7473
2.79305 6.88479 20.7977
2.73164 6.76491 20.5244
2.71584 6.7679 20.7105
2.70212 6.87716 20.2016
2.65753 6.85537 20.6017
2.72962 6.92189 21.1325
2.70082 6.8763 20.9461
2.66365 6.73034 20.4444
2.62792 6.81709 20.9499
2.67968 6.66037 20.4969
2.76046 7.18116 21.2121
2.66207 6.83929 20.7383
2.69679 6.96119 21.7568
2.75919 6.90869 20.4326
2.60751 6.84569 20.9399
2.62228 6.91705 21.4449
2.65519 6.8457 21.549
2.74969 6.96448 21.5021
2.66384 6.81974 21.2754
2.72068 6.87217 20.6904
2.64347 6.92245 21.2979
2.67088 6.85054 21.2513
2.65754 6.95098 21.5757
2.65032 6.67633 20.9229
2.68577 6.80386 20.8615
2.57904 6.722 20.8023
2.64501 6.96388 21.3619
2.56428 6.6437 21.3428
2.66456 6.70777 20.8712
2.6367 6.95031 21.5674
2.64101 6.8742 21.2777
2.62267 6.83167 21.5731
2.64296 6.9578 21.9569
2.64956 6.8745 21.8068
2.65476 6.9433 21.6734
2.66134 6.91962 21.7416
2.64464 6.9278 21.6743
2.64236 6.791 21.3977
2.64953 6.91358 21.5145
2.60704 6.80606 21.6787
2.60123 6.85826 21.4214
2.57228 6.85413 21.8071
2.62477 6.88718 21.8423
2.59754 6.84226 22.2265
2.66737 6.95574 22.1716
2.62612 6.76454 21.2969
2.61537 7.04434 22.0431
2.58559 6.97381 22.6852
2.57908 6.73795 22.1888
2.69663 7.1248 21.6432
2.49846 6.71229 21.7943
2.58975 7.02435 22.3063
2.57866 6.96042 22.1321
2.5448 6.70713 22.3848
2.6408 6.98501 21.6506
2.55734 6.92575 22.5384
2.64201 7.28999 23.7194
2.69143 7.0201 22.0887
2.50316 6.74425 22.3056
2.6207 6.98957 22.093
2.51071 6.86295 22.3968
2.52935 6.98388 22.2632
2.51501 6.86362 22.5027
2.56677 6.96818 22.2619
2.50734 6.74001 22.4871
2.59455 6.99175 22.6704
2.54522 6.88269 22.3353
2.60579 7.13286 22.8025
2.49354 6.76947 22.2672
2.52058 6.86388 22.5255
2.54273 6.90743 22.8175
2.5738 6.91611 22.4823
2.53886 7.06124 22.8782
2.54402 6.93578 22.4111
2.54217 6.7985 22.1488
2.45434 7.04176 23.0852
2.49186 6.92493 23.0086
2.52522 6.88624 22.5078
2.51736 7.02527 23.443
2.58148 6.96514 23.042
2.5785 7.12912 23.1683
2.50635 6.87573 22.9478
2.52395 6.90041 22.2979
2.47859 6.72189 21.7034
2.44396 6.87528 23.3524
2.50973 6.81516 22.8381
2.48685 6.84404 23.0423
2.52755 6.9811 22.4747
2.41149 6.77539 23.0104
2.57339 7.19522 23.9721
2.50951 7.00798 22.8837
2.43392 6.78257 22.9305
2.49574 6.93894 23.4699
2.4975 6.76148 22.3034
2.44573 7.07897 23.5425
2.41794 6.91958 23.0181
2.43438 6.78127 23.0755
2.44507 6.75562 22.5698
2.39745 6.87686 23.6424
2.5277 6.92197 22.9672
2.50363 7.06137 23.2967
2.44799 7.06678 23.8632
2.4722 6.81613 23.1673
2.42765 6.95732 23.4301
2.46102 7.11455 23.6983
2.4346 6.81314 23.64
2.48578 7.06353 23.7622
2.43483 6.9604 23.9692
2.46396 6.99792 23.901
2.48902 7.39037 24.8542
2.50973 6.94675 23.0297
2.4109 6.90748 24.0145
2.43698 6.98009 23.749
2.41789 7.14927 24.8597
2.55453 7.01853 23.287
2.34727 6.79801 23.4002
2.42211 6.86797 23.4481
2.40001 7.02514 23.4908
2.35664 6.83426 23.6243
2.44936 7.05946 24.3312
2.49856 7.00301 23.7169
2.42412 7.09714 23.8905
2.47097 7.09927 24.6156
2.46378 6.9826 24.2851
2.46314 6.82117 23.0962
2.36907 7.00659 24.8894
2.49401 7.05962 23.8737
2.43506 7.17936 24.2056
2.35647 6.84225 24.1402
2.39041 6.83197 23.8193
2.45964 7.08521 24.358
2.4553 7.07686 24.1149
2.41798 7.19609 24.7916
2.40059 6.86398 23.9059
2.41896 6.92194 23.7085
2.36335 7.01087 24.4447
2.44939 6.9185 24.4016
2.4371 7.13658 24.7452
2.47186 7.31125 24.902
2.36637 6.99967 24.5263
2.40601 7.00287 24.8489
2.45152 7.06997 24.2756
2.42751 7.11966 25.1597
2.42357 7.03768 24.9939
2.42883 7.15264 24.769
2.36651 7.0801 24.6591
2.37723 6.97499 24.5533
2.41496 6.96701 24.3104
2.36186 6.91348 24.2442
2.31441 6.72558 23.9748
2.37821 7.04967 25.5175
2.4868 6.99832 24.0161
2.32194 7.07867 25.4849
2.40439 7.06989 24.6122
2.36313 6.7544 24.0502
2.38704 7.10621 25.0646
2.41932 7.21966 25.9014
2.4745 6.96948 24.4939
2.36789 7.08836 24.9418
2.37541 7.31857 25.1271
2.31814 6.6935 23.7867
2.2723 6.88712 24.2438
2.31984 6.79518 24.652
2.35516 7.07852 24.7261
2.40223 7.10434 25.1062
2.39093 7.12268 25.3404
2.40399 7.10902 25.5238
2.45217 7.38523 25.703
2.41155 7.17419 25.276
2.34633 7.15749 25.9016
2.3612 7.13752 24.9015
2.28021 6.95238 24.9178
2.37337 7.01918 25.3789
2.36011 7.20133 25.8123
2.34822 7.16048 25.4222
2.3759 7.02543 25.4041
2.38353 7.15035 25.3111
2.31552 7.01531 25.8732
2.38334 7.13823 25.5372
2.37705 7.21668 26.0229
2.37962 7.25034 26.8896
2.49703 7.3959 26.7369
2.4583 7.36139 25.8397
2.3749 7.29788 26.1696
2.41196 7.48247 27.6842
2.49279 7.73035 28.0475
2.5676 8.03541 28.8999
2.5464 7.82217 26.8116
2.37974 7.43554 28.3622
2.55684 8.09162 28.7889
2.5674 7.84428 28.1264
2.5139 7.60668 27.7524
2.48288 7.39169 26.9727
2.41443 7.45244 25.8217
2.27127 7.21919 26.436
2.35187 6.92016 25.8923
2.38208 7.1932 24.8833
2.21573 7.08348 26.601
2.37523 6.99848 25.0799
2.28602 7.21423 26.3977
2.31899 7.06922 26.1538
2.35335 7.29137 27.0517
2.40735 7.22087 26.3351
2.37258 7.30794 26.5969
2.40171 7.18005 26.0395
2.3475 7.10042 25.9752
2.2835 7.10036 25.4758
2.26213 6.98293 25.943
2.29916 7.13816 26.3855
2.3354 7.18587 25.7061
2.27611 7.16688 26.9725
2.36775 7.1402 25.9239
2.28997 7.31522 26.748
2.33212 7.06708 25.9701
2.27727 7.09592 26.0131
2.28451 7.12289 26.5245
2.31186 7.09166 25.6393
2.24331 6.91748 25.8823
2.28272 7.3297 26.3932
2.24711 6.94769 26.6774
2.34533 7.09156 25.9859
2.28407 6.88684 25.8959
2.28903 7.01193 25.6911
2.26615 6.92568 25.5603
2.25151 7.16554 26.3485
2.32313 7.06651 25.7454
2.26285 7.09548 26.8906
2.29456 7.18002 26.7051
2.31413 7.19945 26.4708
2.29155 7.18233 26.5867
2.26971 6.97245 25.7399
2.21838 6.98689 26.451
2.29106 7.21076 26.3394
2.26304 7.10618 26.9599
2.29912 7.25585 26.9335
2.2921 6.86045 25.7336
2.21552 7.01748 26.2648
2.2678 7.10644 26.5409
2.26817 6.95809 25.5773
2.18584 6.99839 26.7639
2.31621 7.0598 26.4097
2.27057 7.12835 26.1807
2.25059 7.11749 26.3961
2.23548 7.06221 26.0196
2.20665 6.73301 25.2379
2.17398 6.90086 26.5487
2.23936 7.00734 25.8999
2.18939 6.86535 26.7838
2.29799 7.26087 26.8926
2.25229 7.01585 26.4906
2.25263 7.22661 26.681
2.23094 6.88755 25.7292
2.19576 7.06547 27.0755
2.22346 7.16038 27.2716
2.24419 7.1104 26.5512
2.21587 6.96142 25.784
2.17916 7.13693 27.0629
2.24476 6.9474 26.8444
2.28712 7.1835 27.0015
2.23357 7.07026 27.1763
2.28555 7.01316 26.7523
2.27732 7.08734 26.3965
2.20981 7.10477 27.5206
2.26323 7.33232 27.0647
2.29058 7.44322 27.6996
2.24818 7.19565 27.1028
2.21031 7.17171 27.8803
2.31018 7.13663 26.8519
2.24033 7.14713 27.0238
2.22061 7.14258 27.2699
2.26579 7.0814 26.4836
2.19161 7.14237 27.0759
2.24449 6.79393 25.7189
2.15664 7.23429 27.3556
2.20892 6.90213 25.9966
2.14012 6.9092 26.9491
2.22968 7.09301 27.5777
2.24332 7.30872 28.054
2.28449 7.22489 27.7646
2.31532 7.23852 27.2204
2.21127 7.35311 28.0704
2.28035 7.15816 26.8074
2.21804 7.07603 27.1069
2.17577 6.91875 25.9969
2.17302 7.00139 27.1268
2.2063 7.0112 27.0315
2.22639 7.21133 27.7499
2.25208 7.25238 27.6077
2.20463 7.19152 27.6131
2.2237 7.10877 26.8507
2.16293 7.1191 27.5614
2.23472 7.19409 27.8515
2.28615 7.02009 27.8504
2.28419 7.1086 26.6771
2.14662 7.09826 27.5871
2.23877 7.02757 26.8948
2.16249 6.98366 27.144
2.20671 7.07906 27.9289
2.2343 7.28077 27.4257
2.20419 7.18666 27.571
2.19677 7.14552 27.4291
2.18745 7.33651 28.0007
2.21557 7.15853 27.8599
2.20163 7.16635 27.8086
2.20105 7.2984 27.77
2.19778 7.01166 27.2971
2.15382 7.04813 27.4442
2.15989 7.07337 26.9598
2.16904 6.97692 27.0397
2.14925 6.98627 27.3551
2.19495 7.06168 26.718
2.14456 7.17371 27.7096
2.15797 7.11841 27.4912
2.11916 7.07099 28.1126
2.20784 7.23685 27.5828
2.22187 7.02948 27.5781
2.1634 7.29449 28.3115
2.25741 7.11891 27.1702
2.16554 7.13125 28.2514
2.23739 6.95862 27.4307
2.18889 7.07703 27.1993
2.16324 6.99664 27.3434
2.15755 7.13265 27.9467
2.1794 7.124 28.2796
2.22156 7.13417 28.219
2.24819 7.36118 27.7362
2.17469 7.24818 28.0811
2.21079 7.30834 28.4556
2.2674 7.2655 27.5929
2.16492 7.10671 27.7765
2.22146 7.31246 27.8396
2.17441 6.95685 27.4044
2.18327 7.24703 27.5014
2.11115 7.05758 27.62
2.1432 7.03922 28.1811
2.1998 7.337 28.4279
2.20953 7.23911 28.1297
2.22437 7.24744 28.1319
2.16039 7.18795 28.1555
2.18462 7.10381 27.6837
2.15602 6.94431 27.7854
2.16618 7.24924 29.0014
2.25993 7.18785 27.5546
2.15824 7.218 28.7502
2.19317 7.15327 27.1882
2.16491 7.08063 28.7478
2.22191 7.31916 27.5609
2.1329 7.04349 27.6025
2.10391 7.16298 29.0406
2.21691 7.21772 27.4804
2.1201 7.12195 27.7853
2.11236 7.01171 27.8166
2.13582 6.96942 27.08
2.12267 7.06086 28.4106
2.21436 7.01126 27.4039
2.10329 6.9554 26.3975
2.06169 7.13049 28.6364
2.17681 7.09011 28.1371
2.20538 7.22647 27.9907
2.1554 7.09355 27.656
2.13335 7.2415 29.1833
2.24515 7.05956 27.1596
2.09015 6.90361 27.5406
2.1285 7.34035 28.4056
2.17794 7.089 28.5784
2.16628 7.25298 28.7021
2.21006 7.30546 28.9159
2.20439 7.28056 27.3225
2.11847 7.2147 29.484
2.24763 7.36761 28.9111
2.1922 7.30938 28.2056
2.12416 7.03748 28.9327
2.21419 7.30453 27.8532
2.15343 7.16068 27.8882
2.17066 7.0659 28.6163
2.1975 7.22208 28.0238
2.13742 7.04161 27.9594
2.12899 7.10651 28.1614
2.1843 7.02341 27.3098
2.10029 7.12241 28.473
2.16827 7.09949 28.0025
2.16316 7.11832 27.9887
2.11329 6.99888 28.0884
2.0906 7.17616 27.9433
2.14179 6.87802 27.8257
2.11426 7.12982 28.1523
2.13782 7.23325 28.7494
2.15622 7.23905 28.6762
2.14199 7.24269 28.1909
2.16423 7.07806 27.9637
2.11864 7.18231 28.431
2.14058 7.27722 28.4574
2.14962 7.17369 29.1724
2.21675 7.18549 28.4217
2.13653 7.29516 28.3012
2.15823 7.21559 28.8526
2.11938 6.98551 27.8721
2.10737 7.14669 28.6581
2.12759 7.18793 27.9456
2.17038 7.13539 27.8548
2.08791 6.95034 28.5617
2.20385 7.36253 28.239
2.09718 7.26308 29.3937
2.2024 7.30667 28.8658
2.1908 7.24731 28.4862
2.08315 7.30208 30.0117
2.23366 7.04805 27.7671
2.06748 7.19785 28.8288
2.15849 7.00901 28.4172
2.13855 7.1356 28.9294
2.15883 7.14092 27.8951
2.07993 7.17427 27.8466
2.09602 6.87172 27.0662
2.10388 6.92927 27.6245
2.05033 7.26138 29.4458
2.18516 7.2727 29.0335
2.17489 7.26255 27.9496
2.09664 7.14449 28.3539
2.12093 7.37777 29.7285
2.20754 6.98166 28.4453
2.16814 7.2104 29.3585
2.18394 7.09698 29.0826
2.1797 7.24933 27.9675
2.09493 7.45312 29.1172
2.18368 7.23249 30.2147
2.25036 7.45378 29.2347
2.15645 7.56107 29.46
2.22622 7.17705 28.6097
2.15152 7.30785 29.4314
2.21517 7.66459 29.4989
2.18413 7.3317 30.3828
2.25742 7.2668 27.7774
2.07113 7.14775 29.3911
2.19311 7.52937 28.9996
2.16295 7.08449 28.2072
2.13766 7.1813 29.0284
2.15358 7.20683 28.5989
2.12145 6.9654 27.8995
2.1218 7.29741 28.5754
2.10877 7.1032 28.2329
2.10847 6.92815 28.8858
2.17405 7.35752 28.7047
2.13248 7.10966 28.1694
2.12134 7.10923 28.7668
2.12521 7.25763 29.7655
2.24613 7.39908 28.6758
2.13755 7.19951 29.2797
2.19237 7.18307 28.6874
2.13387 7.32642 29.8468
2.25496 7.2881 28.3505
2.12356 7.01384 28.5622
2.17217 7.19748 29.2265
2.14567 7.34004 28.7106
2.15006 7.28739 28.4097
2.1268 7.12482 29.6881
2.21964 7.39067 29.0404
2.17065 7.14129 28.4701
2.11707 7.38221 29.6211
2.18434 7.35224 28.503
2.16043 7.13298 28.6068
2.13829 7.19567 28.9834
2.13093 7.29937 29.2471
2.15776 7.32114 28.9408
2.16719 7.09356 28.9435
2.16604 7.22926 28.3411
2.0941 7.26963 29.1363
2.17549 7.22285 29.6721
2.18701 7.42048 28.6864
2.15847 7.35214 30.3381
2.24508 7.46704 30.2539
2.19249 7.52156 29.269
2.17787 7.61661 30.8519
2.24984 7.67703 30.9004
2.26107 7.97543 33.3097
2.44621 8.32948 33.3167
2.37179 7.96519 29.9944
2.23992 0 0